SpectraSuite Data File
++++++++++++++++++++++++++++++++++++
Date: Mon Nov 11 17:08:02 CET 2013
User: IPCE
Dark Spectrum Present: Yes
Reference Spectrum Present: No
Number of Sampled Component Spectra: 1
Spectrometers: HR+C0708
Integration Time (usec): 1000 (HR+C0708)
Spectra Averaged: 10 (HR+C0708)
Boxcar Smoothing: 0 (HR+C0708)
Correct for Electrical Dark: No (HR+C0708)
Strobe/Lamp Enabled: No (HR+C0708)
Correct for Detector Non-linearity: No (HR+C0708)
Correct for Stray Light: No (HR+C0708)
Number of Pixels in Processed Spectrum: 2048
>>>>>Begin Processed Spectral Data<<<<<
188.76	716.90
189.23	788.80
189.70	788.90
190.17	787.50
190.64	788.30
191.12	787.20
191.59	796.70
192.06	786.30
192.53	794.50
193.01	799.20
193.48	789.90
193.95	789.20
194.42	787.20
194.90	788.20
195.37	802.30
195.84	787.70
196.31	794.60
196.78	797.90
197.26	791.70
197.73	792.40
198.20	804.20
198.67	786.60
199.14	787.20
199.62	799.00
200.09	793.40
200.56	821.10
201.03	826.30
201.50	818.00
201.97	824.60
202.45	820.10
202.92	813.70
203.39	824.20
203.86	819.50
204.33	821.70
204.80	821.30
205.28	816.40
205.75	817.60
206.22	826.30
206.69	825.90
207.16	826.20
207.63	813.90
208.11	823.30
208.58	832.00
209.05	810.50
209.52	830.40
209.99	823.90
210.46	818.30
210.93	820.40
211.41	818.90
211.88	819.50
212.35	831.50
212.82	819.70
213.29	829.10
213.76	838.50
214.23	822.80
214.70	820.00
215.18	821.90
215.65	822.60
216.12	826.60
216.59	829.50
217.06	826.70
217.53	827.00
218.00	822.00
218.47	831.00
218.94	833.30
219.41	821.30
219.89	824.10
220.36	832.60
220.83	825.10
221.30	829.90
221.77	826.40
222.24	830.90
222.71	827.90
223.18	830.50
223.65	828.30
224.12	841.20
224.59	832.20
225.06	828.30
225.54	832.70
226.01	827.50
226.48	831.80
226.95	823.40
227.42	823.50
227.89	833.20
228.36	825.00
228.83	833.80
229.30	840.90
229.77	829.10
230.24	822.70
230.71	836.50
231.18	828.30
231.65	838.70
232.12	839.50
232.59	830.60
233.06	831.00
233.53	826.20
234.00	836.40
234.47	837.40
234.94	826.50
235.41	836.30
235.88	832.60
236.35	830.10
236.82	830.90
237.29	841.60
237.76	829.90
238.23	844.20
238.70	832.70
239.17	830.90
239.64	841.60
240.11	830.70
240.58	837.80
241.05	839.30
241.52	834.30
241.99	834.40
242.46	843.20
242.93	832.50
243.40	839.00
243.87	833.80
244.34	830.00
244.81	842.30
245.28	830.10
245.75	839.80
246.22	846.70
246.69	837.50
247.16	839.00
247.63	839.90
248.10	844.60
248.57	843.20
249.04	845.10
249.51	841.60
249.98	851.50
250.45	844.40
250.92	845.90
251.39	850.10
251.85	846.50
252.32	851.60
252.79	853.00
253.26	845.00
253.73	849.50
254.20	851.90
254.67	854.40
255.14	854.00
255.61	853.60
256.08	853.30
256.55	862.30
257.02	859.70
257.49	861.70
257.95	874.00
258.42	868.60
258.89	870.90
259.36	875.80
259.83	879.20
260.30	883.80
260.77	882.50
261.24	895.00
261.71	899.50
262.17	892.20
262.64	900.40
263.11	916.00
263.58	920.30
264.05	944.30
264.52	1013.60
264.99	1121.40
265.46	1224.10
265.92	1207.80
266.39	1071.70
266.86	980.60
267.33	955.10
267.80	948.80
268.27	958.90
268.74	982.10
269.20	1028.50
269.67	1095.10
270.14	1150.30
270.61	1186.60
271.08	1193.70
271.55	1226.80
272.01	1265.50
272.48	1266.20
272.95	1282.00
273.42	1317.20
273.89	1420.70
274.36	1521.60
274.82	1626.80
275.29	1692.70
275.76	1677.70
276.23	1633.40
276.70	1633.10
277.16	1619.90
277.63	1517.00
278.10	1402.10
278.57	1354.00
279.04	1411.00
279.50	1656.00
279.97	2021.00
280.44	2338.40
280.91	2288.20
281.38	1875.80
281.84	1579.80
282.31	1532.80
282.78	1530.90
283.25	1529.30
283.72	1507.30
284.18	1501.70
284.65	1511.70
285.12	1480.10
285.59	1391.50
286.05	1378.90
286.52	1397.80
286.99	1441.80
287.46	1459.50
287.92	1429.20
288.39	1588.70
288.86	1961.70
289.33	2346.80
289.79	2425.60
290.26	2037.30
290.73	1769.60
291.20	2121.40
291.66	2730.30
292.13	3174.50
292.60	3069.50
293.07	2564.30
293.53	2239.20
294.00	2191.20
294.47	2242.80
294.93	2408.70
295.40	2741.00
295.87	3732.00
296.34	5305.20
296.80	6609.10
297.27	6479.10
297.74	4605.70
298.20	3351.40
298.67	3108.00
299.14	3181.00
299.60	3421.90
300.07	3858.80
300.54	4244.80
301.01	5114.00
301.47	7397.00
301.94	9894.50
302.41	10694.10
302.87	9863.20
303.34	6237.60
303.81	4510.20
304.27	4151.10
304.74	3983.60
305.21	3804.40
305.67	3745.60
306.14	3860.90
306.61	3576.70
307.07	3179.80
307.54	2982.00
308.01	2841.70
308.47	2749.20
308.94	2825.60
309.40	3092.50
309.87	3359.30
310.34	3406.20
310.80	3148.30
311.27	3634.80
311.74	7202.20
312.20	11004.00
312.67	12673.60
313.13	13002.10
313.60	12407.10
314.07	9819.70
314.53	4727.80
315.00	3298.20
315.47	2860.10
315.93	2658.80
316.40	2463.50
316.86	2353.00
317.33	2340.70
317.80	2518.30
318.26	2734.60
318.73	2969.30
319.19	3284.90
319.66	3570.60
320.13	3712.10
320.59	3854.30
321.06	4421.90
321.52	5215.40
321.99	5788.50
322.45	6072.20
322.92	6078.60
323.39	5335.40
323.85	4202.80
324.32	3504.30
324.78	3178.20
325.25	2923.60
325.71	2642.70
326.18	2583.30
326.64	2619.50
327.11	2623.80
327.58	2630.90
328.04	2662.70
328.51	2845.20
328.97	2962.10
329.44	2852.00
329.90	2799.00
330.37	2953.50
330.83	3151.70
331.30	2925.00
331.76	2559.70
332.23	2516.80
332.69	2765.90
333.16	3682.50
333.62	5110.10
334.09	6354.90
334.56	6344.10
335.02	4279.70
335.49	2833.80
335.95	2548.70
336.42	2493.40
336.88	2526.10
337.35	2642.00
337.81	2725.90
338.28	2926.60
338.74	3301.80
339.20	3756.70
339.67	4565.10
340.13	5830.70
340.60	7310.40
341.06	8100.80
341.53	7525.60
341.99	6715.60
342.46	6199.90
342.92	6384.90
343.39	7361.20
343.85	8326.20
344.32	8898.20
344.78	9548.30
345.25	10010.90
345.71	8677.30
346.17	7336.80
346.64	7160.90
347.10	8122.00
347.57	9323.80
348.03	8626.80
348.50	7699.30
348.96	8045.40
349.43	9201.90
349.89	9584.50
350.35	10251.10
350.82	11813.90
351.28	13622.50
351.75	14769.10
352.21	15076.80
352.67	14949.30
353.14	14409.90
353.60	12307.50
354.07	10130.20
354.53	9147.50
355.00	9220.90
355.46	10988.10
355.92	12424.80
356.39	13640.00
356.85	14414.10
357.31	14645.80
357.78	14652.90
358.24	14716.90
358.71	14613.90
359.17	13100.00
359.63	11102.60
360.10	11167.70
360.56	12149.00
361.03	13268.10
361.49	13215.30
361.95	12981.40
362.42	13171.40
362.88	12843.40
363.34	13467.50
363.81	14153.00
364.27	14622.20
364.73	15261.30
365.20	15722.90
365.66	15297.70
366.12	14479.70
366.59	14079.30
367.05	13083.50
367.51	11674.50
367.98	11833.00
368.44	12130.90
368.90	11850.30
369.37	11232.30
369.83	11295.70
370.29	12177.80
370.76	13535.40
371.22	14201.00
371.68	14467.70
372.15	14961.60
372.61	15254.50
373.07	15455.20
373.54	15833.20
374.00	16047.60
374.46	15907.20
374.92	15881.80
375.39	15611.50
375.85	15226.20
376.31	15228.60
376.78	15395.60
377.24	15486.00
377.70	15688.70
378.16	15585.80
378.63	15046.30
379.09	14823.60
379.55	14777.40
380.01	14742.20
380.48	14387.30
380.94	14612.70
381.40	15152.30
381.87	15769.00
382.33	16030.20
382.79	16005.90
383.25	15566.10
383.72	15210.50
384.18	15120.90
384.64	14920.90
385.10	14817.10
385.56	14908.10
386.03	15032.50
386.49	14926.20
386.95	14737.20
387.41	14877.00
387.88	15067.90
388.34	15083.40
388.80	15072.30
389.26	14978.90
389.72	14802.00
390.19	14642.30
390.65	13541.50
391.11	12247.50
391.57	12022.00
392.04	13127.40
392.50	14068.30
392.96	13657.40
393.42	12294.80
393.88	9451.60
394.34	8107.00
394.81	8305.50
395.27	8570.60
395.73	9124.50
396.19	9970.10
396.65	11155.80
397.12	11675.00
397.58	10129.60
398.04	7700.00
398.50	7320.60
398.96	7693.40
399.42	8958.50
399.89	10434.30
400.35	10650.60
400.81	10566.40
401.27	8990.10
401.73	7907.90
402.19	8209.70
402.65	9070.20
403.12	11102.70
403.58	13925.50
404.04	15068.80
404.50	16045.00
404.96	16175.00
405.42	15105.90
405.88	14380.70
406.34	14674.20
406.81	14800.30
407.27	14622.20
407.73	13970.90
408.19	12170.50
408.65	9075.20
409.11	6728.70
409.57	6012.10
410.03	6062.80
410.49	6253.30
410.96	7004.50
411.42	8018.10
411.88	9173.80
412.34	10305.10
412.80	11052.40
413.26	11705.10
413.72	12115.10
414.18	11973.00
414.64	12133.60
415.10	10452.90
415.56	8495.00
416.02	7695.60
416.48	6940.10
416.95	7173.70
417.41	8487.60
417.87	9858.10
418.33	11042.80
418.79	11858.50
419.25	12269.20
419.71	12612.30
420.17	13273.50
420.63	12390.10
421.09	10242.60
421.55	9490.40
422.01	9863.90
422.47	10769.70
422.93	11518.60
423.39	11791.60
423.85	12089.20
424.31	12055.00
424.77	12843.30
425.23	13915.50
425.69	13869.80
426.15	14050.60
426.61	14650.80
427.07	14861.90
427.53	14869.20
427.99	13231.90
428.45	11436.20
428.91	11738.90
429.37	12517.70
429.83	13708.40
430.29	14559.80
430.75	14973.10
431.21	14993.60
431.67	13942.70
432.13	14412.20
432.59	14972.70
433.05	14996.80
433.51	14181.50
433.97	14272.30
434.43	14671.50
434.89	15349.50
435.35	16383.00
435.81	16383.00
436.27	16383.00
436.73	15905.20
437.19	15156.80
437.65	15482.20
438.11	16028.80
438.57	16286.00
439.03	15926.60
439.48	15277.90
439.94	15503.90
440.40	15977.00
440.86	16174.40
441.32	15835.20
441.78	15723.20
442.24	15471.30
442.70	15353.00
443.16	15355.30
443.62	15291.60
444.08	14986.80
444.54	14590.40
444.99	13799.10
445.45	12899.50
445.91	11787.40
446.37	11168.50
446.83	9494.10
447.29	8067.60
447.75	7215.60
448.21	6908.60
448.67	6117.40
449.12	5400.20
449.58	5151.00
450.04	4203.50
450.50	3396.90
450.96	3141.30
451.42	3087.90
451.88	3416.10
452.34	4349.40
452.79	5645.00
453.25	5692.40
453.71	3961.90
454.17	2741.30
454.63	2604.50
455.09	2591.60
455.55	2569.00
456.00	2462.00
456.46	2373.40
456.92	2281.80
457.38	2251.00
457.84	2289.70
458.30	2439.40
458.75	2525.20
459.21	2585.60
459.67	2831.30
460.13	2973.60
460.59	3030.40
461.04	2777.10
461.50	2459.80
461.96	2356.00
462.42	2353.80
462.88	2432.70
463.33	2531.90
463.79	2612.90
464.25	2613.80
464.71	2616.90
465.17	2731.10
465.62	2711.90
466.08	2678.60
466.54	2775.40
467.00	2996.80
467.46	2963.00
467.91	2824.90
468.37	2689.70
468.83	2570.20
469.29	2611.50
469.74	2614.30
470.20	2631.10
470.66	2850.90
471.12	2981.90
471.57	2649.10
472.03	2511.10
472.49	2608.40
472.95	2970.80
473.40	3298.90
473.86	3519.40
474.32	3175.60
474.78	2864.00
475.23	2706.10
475.69	2623.00
476.15	2684.80
476.60	2748.10
477.06	2848.70
477.52	2844.20
477.98	2785.50
478.43	2925.70
478.89	3155.70
479.35	3099.20
479.80	2843.30
480.26	2780.20
480.72	2748.80
481.18	2787.80
481.63	2780.10
482.09	2699.70
482.55	2692.10
483.00	2796.20
483.46	3016.60
483.92	3371.90
484.37	3665.50
484.83	3736.40
485.29	4202.10
485.74	5704.20
486.20	7467.70
486.66	9016.50
487.11	11544.80
487.57	11774.20
488.03	9751.50
488.48	9978.40
488.94	12697.20
489.40	13817.20
489.85	11372.70
490.31	8251.40
490.77	8955.00
491.22	10997.40
491.68	13691.20
492.13	14601.40
492.59	13932.80
493.05	9912.60
493.50	7105.50
493.96	8083.40
494.42	8538.80
494.87	9751.90
495.33	13336.10
495.78	14896.80
496.24	14668.10
496.70	11184.70
497.15	6998.30
497.61	5947.10
498.06	6850.70
498.52	8579.40
498.98	7883.80
499.43	6753.00
499.89	7213.50
500.34	9596.30
500.80	11227.40
501.25	10487.00
501.71	7878.80
502.17	5834.90
502.62	5368.90
503.08	5183.10
503.53	5080.00
503.99	6550.40
504.44	8038.00
504.90	8200.70
505.36	7975.50
505.81	5788.80
506.27	4878.20
506.72	5806.30
507.18	6509.90
507.63	6708.20
508.09	6950.50
508.54	6171.90
509.00	4956.40
509.45	4924.40
509.91	5712.90
510.36	6123.30
510.82	7194.80
511.27	7502.90
511.73	5927.10
512.19	6143.30
512.64	7717.40
513.10	8564.80
513.55	10357.30
514.01	11900.70
514.46	11443.40
514.92	8618.50
515.37	8172.00
515.83	8932.80
516.28	12382.10
516.73	15180.10
517.19	15336.10
517.64	12623.50
518.10	7310.30
518.55	7076.00
519.01	10725.10
519.46	12833.30
519.92	11944.60
520.37	9738.40
520.83	9725.30
521.28	10016.30
521.74	11386.70
522.19	12332.50
522.65	14743.30
523.10	15116.20
523.55	14572.50
524.01	11534.40
524.46	7200.80
524.92	7459.40
525.37	8997.70
525.83	10958.60
526.28	13902.30
526.73	16184.60
527.19	16383.00
527.64	15990.20
528.10	12829.10
528.55	10501.30
529.01	7624.70
529.46	5475.30
529.91	5759.90
530.37	6990.10
530.82	7628.30
531.28	8519.30
531.73	11224.20
532.18	14528.10
532.64	16319.70
533.09	16383.00
533.54	16383.00
534.00	16383.00
534.45	16383.00
534.91	16383.00
535.36	16383.00
535.81	16383.00
536.27	16383.00
536.72	16383.00
537.17	16383.00
537.63	16383.00
538.08	15550.60
538.54	15226.70
538.99	15039.60
539.44	15154.60
539.90	15703.30
540.35	15632.20
540.80	15531.20
541.26	14779.60
541.71	12684.40
542.16	12607.20
542.62	14333.00
543.07	15463.60
543.52	15718.20
543.98	15170.90
544.43	15451.20
544.88	16383.00
545.34	16383.00
545.79	16383.00
546.24	16383.00
546.69	16383.00
547.15	16383.00
547.60	14589.20
548.05	14102.60
548.51	12904.00
548.96	12363.60
549.41	10817.50
549.86	10757.40
550.32	10208.10
550.77	8743.40
551.22	7046.80
551.68	5329.70
552.13	4846.10
552.58	4928.40
553.03	5089.00
553.49	4924.50
553.94	4600.40
554.39	4419.00
554.84	4401.60
555.30	4461.40
555.75	4751.70
556.20	5318.20
556.65	6393.80
557.11	8750.00
557.56	10005.70
558.01	7890.40
558.46	7496.30
558.92	9600.60
559.37	7422.70
559.82	5194.10
560.27	5593.60
560.72	5977.60
561.18	6826.20
561.63	10902.90
562.08	10771.90
562.53	6470.20
562.99	4921.30
563.44	4068.40
563.89	4053.20
564.34	3980.80
564.79	3813.40
565.25	3955.00
565.70	4469.30
566.15	5101.00
566.60	4547.30
567.05	3779.70
567.50	3647.60
567.96	3719.00
568.41	3656.40
568.86	3644.90
569.31	3631.80
569.76	3665.60
570.21	3934.20
570.67	4297.10
571.12	4610.40
571.57	4427.10
572.02	4128.80
572.47	4125.30
572.92	4344.80
573.37	4760.90
573.83	5304.50
574.28	6169.10
574.73	8195.10
575.18	10813.90
575.63	12894.00
576.08	14110.30
576.53	14810.70
576.98	16359.40
577.44	16383.00
577.89	14884.80
578.34	14491.50
578.79	15296.70
579.24	16383.00
579.69	15822.70
580.14	14157.00
580.59	12488.40
581.04	10931.20
581.49	9802.80
581.95	9136.20
582.40	7877.20
582.85	6554.80
583.30	4700.20
583.75	4299.30
584.20	4035.80
584.65	3896.10
585.10	3845.30
585.55	3863.80
586.00	4030.40
586.45	4128.60
586.90	3843.60
587.35	3714.20
587.80	4146.60
588.25	5206.90
588.71	7571.80
589.16	12011.60
589.61	12680.70
590.06	9020.90
590.51	5144.20
590.96	3841.50
591.41	3720.50
591.86	3659.90
592.31	3327.50
592.76	3285.30
593.21	3495.80
593.66	3425.60
594.11	3124.00
594.56	2989.20
595.01	2989.30
595.46	3018.30
595.91	2977.80
596.36	2916.30
596.81	2897.40
597.26	2910.80
597.71	3073.70
598.16	3181.60
598.61	3366.80
599.06	3270.00
599.51	3021.90
599.96	2995.20
600.41	3131.20
600.86	3293.20
601.31	3258.70
601.76	3216.60
602.21	3595.10
602.65	3905.20
603.10	3390.60
603.55	2865.40
604.00	2779.70
604.45	2773.80
604.90	2767.60
605.35	2835.20
605.80	3059.90
606.25	3311.00
606.70	3782.90
607.15	3672.40
607.60	3141.20
608.05	3126.50
608.50	3066.90
608.95	2906.60
609.39	2831.30
609.84	2929.80
610.29	3174.10
610.74	3255.70
611.19	2931.80
611.64	2770.00
612.09	2870.50
612.54	3128.80
612.99	3487.30
613.44	4384.10
613.88	6263.40
614.33	5423.90
614.78	3371.30
615.23	2841.20
615.68	2768.30
616.13	2776.80
616.58	2757.70
617.03	2796.40
617.47	2869.50
617.92	2821.10
618.37	2915.70
618.82	3331.40
619.27	4261.60
619.72	4048.10
620.17	3071.50
620.61	2797.10
621.06	2789.60
621.51	3035.00
621.96	3293.60
622.41	3472.80
622.86	4133.10
623.30	5455.50
623.75	4863.50
624.20	3623.70
624.65	3660.90
625.10	4127.70
625.54	4379.20
625.99	3750.60
626.44	3031.20
626.89	2877.30
627.34	2719.80
627.78	2609.80
628.23	2626.90
628.68	2638.80
629.13	2657.60
629.58	2836.80
630.02	3149.60
630.47	3436.70
630.92	3064.10
631.37	2804.80
631.81	3056.70
632.26	3102.20
632.71	2842.50
633.16	2832.90
633.61	3262.60
634.05	3355.20
634.50	2875.10
634.95	2564.20
635.40	2538.40
635.84	2575.00
636.29	2534.70
636.74	2457.30
637.18	2441.20
637.63	2402.80
638.08	2447.30
638.53	2575.80
638.97	2952.30
639.42	3929.30
639.87	4723.20
640.32	4681.90
640.76	3955.80
641.21	3638.90
641.66	3556.30
642.10	3439.30
642.55	3410.00
643.00	3254.60
643.44	3155.00
643.89	2702.70
644.34	2396.90
644.79	2342.40
645.23	2415.90
645.68	2399.20
646.13	2364.70
646.57	2390.20
647.02	2361.80
647.47	2329.30
647.91	2329.40
648.36	2386.70
648.81	2640.80
649.25	3548.40
649.70	4779.70
650.15	4053.50
650.59	2708.90
651.04	2277.90
651.48	2200.20
651.93	2214.20
652.38	2209.80
652.82	2186.30
653.27	2199.90
653.72	2265.30
654.16	2502.60
654.61	3268.90
655.06	4350.00
655.50	4233.80
655.95	3135.00
656.39	2547.20
656.84	2482.50
657.29	2462.50
657.73	2384.00
658.18	2314.80
658.62	2344.00
659.07	2647.50
659.52	3000.50
659.96	2757.70
660.41	2328.80
660.85	2196.40
661.30	2192.40
661.74	2145.90
662.19	2144.70
662.64	2126.40
663.08	2133.10
663.53	2168.50
663.97	2136.50
664.42	2065.80
664.86	2015.90
665.31	2012.70
665.75	2050.90
666.20	2154.20
666.65	2215.70
667.09	2217.90
667.54	2491.70
667.98	2927.30
668.43	2689.70
668.87	2270.50
669.32	2155.20
669.76	2402.00
670.21	3527.40
670.65	7326.60
671.10	9778.10
671.54	6926.70
671.99	3805.00
672.43	2667.10
672.88	2266.80
673.32	2120.50
673.77	2062.40
674.21	2036.30
674.66	2028.60
675.10	2065.40
675.55	2017.50
675.99	1960.60
676.44	1920.20
676.88	1911.30
677.33	1935.20
677.77	1904.10
678.22	1875.50
678.66	1887.60
679.11	1880.80
679.55	1884.80
679.99	1876.40
680.44	1877.40
680.88	1888.90
681.33	1902.90
681.77	1890.20
682.22	1870.90
682.66	1871.40
683.11	1869.90
683.55	1863.70
683.99	1923.20
684.44	1960.60
684.88	1947.00
685.33	1918.30
685.77	1955.70
686.21	1936.20
686.66	1860.30
687.10	1831.30
687.55	1836.90
687.99	1812.70
688.44	1831.90
688.88	1840.40
689.32	1839.10
689.77	1893.40
690.21	2136.30
690.65	3015.60
691.10	3786.40
691.54	3267.90
691.99	2443.90
692.43	2033.10
692.87	1863.20
693.32	1811.50
693.76	1791.70
694.20	1792.90
694.65	1842.00
695.09	1823.70
695.53	1758.10
695.98	1733.60
696.42	1702.60
696.86	1691.90
697.31	1713.00
697.75	1761.90
698.19	1798.00
698.64	1752.10
699.08	1696.20
699.52	1695.10
699.97	1682.70
700.41	1682.80
700.85	1681.10
701.30	1697.90
701.74	1752.90
702.18	1770.10
702.63	1744.40
703.07	1694.10
703.51	1669.70
703.96	1667.90
704.40	1639.10
704.84	1629.80
705.28	1644.00
705.73	1649.10
706.17	1623.90
706.61	1629.90
707.06	1649.00
707.50	1647.70
707.94	1783.90
708.38	2069.80
708.83	2125.80
709.27	1981.30
709.71	1824.80
710.15	1672.40
710.60	1593.70
711.04	1559.10
711.48	1570.50
711.92	1601.80
712.37	1614.00
712.81	1624.60
713.25	1662.60
713.69	1635.60
714.13	1609.10
714.58	1604.40
715.02	1580.60
715.46	1551.80
715.90	1558.50
716.35	1626.20
716.79	1653.80
717.23	1574.90
717.67	1542.90
718.11	1586.10
718.56	1784.30
719.00	1956.20
719.44	1800.40
719.88	1609.30
720.32	1585.90
720.76	1695.00
721.21	1686.80
721.65	1586.50
722.09	1526.10
722.53	1523.90
722.97	1519.30
723.41	1525.80
723.86	1568.40
724.30	1564.10
724.74	1497.10
725.18	1448.90
725.62	1413.60
726.06	1423.10
726.50	1416.90
726.95	1365.70
727.39	1375.00
727.83	1384.40
728.27	1377.80
728.71	1400.70
729.15	1424.90
729.59	1420.20
730.03	1397.50
730.48	1384.90
730.92	1400.00
731.36	1394.10
731.80	1349.90
732.24	1353.20
732.68	1340.00
733.12	1322.30
733.56	1305.90
734.00	1313.60
734.44	1307.30
734.89	1323.00
735.33	1331.20
735.77	1325.30
736.21	1325.00
736.65	1311.40
737.09	1311.30
737.53	1308.90
737.97	1309.80
738.41	1341.50
738.85	1417.90
739.29	1421.00
739.73	1380.00
740.17	1379.60
740.61	1394.30
741.05	1447.20
741.49	1446.70
741.93	1428.30
742.37	1384.00
742.81	1327.30
743.26	1315.70
743.70	1307.40
744.14	1351.90
744.58	1457.10
745.02	1449.00
745.46	1376.00
745.90	1318.80
746.34	1293.70
746.78	1321.30
747.22	1339.00
747.66	1311.40
748.10	1281.80
748.54	1276.20
748.98	1323.60
749.42	1483.90
749.86	1527.20
750.29	1443.90
750.73	1484.90
751.17	1654.80
751.61	1609.30
752.05	1433.20
752.49	1303.00
752.93	1279.40
753.37	1284.20
753.81	1252.70
754.25	1242.40
754.69	1230.70
755.13	1221.10
755.57	1229.70
756.01	1212.00
756.45	1230.50
756.89	1232.90
757.33	1221.30
757.77	1211.00
758.21	1263.20
758.64	1327.50
759.08	1315.60
759.52	1249.40
759.96	1199.20
760.40	1189.60
760.84	1180.70
761.28	1180.30
761.72	1184.40
762.16	1178.50
762.60	1186.80
763.03	1171.40
763.47	1157.40
763.91	1152.20
764.35	1149.40
764.79	1143.60
765.23	1162.00
765.67	1198.20
766.11	1387.10
766.54	1632.50
766.98	1621.70
767.42	1435.30
767.86	1279.40
768.30	1194.90
768.74	1167.20
769.17	1180.50
769.61	1299.50
770.05	1422.00
770.49	1382.80
770.93	1287.40
771.37	1210.20
771.80	1160.50
772.24	1150.30
772.68	1179.80
773.12	1203.10
773.56	1197.70
774.00	1160.40
774.43	1151.90
774.87	1157.10
775.31	1139.20
775.75	1097.30
776.19	1086.90
776.62	1075.20
777.06	1068.00
777.50	1071.90
777.94	1111.20
778.37	1127.80
778.81	1105.10
779.25	1063.10
779.69	1053.40
780.13	1047.10
780.56	1038.80
781.00	1049.50
781.44	1041.70
781.88	1038.00
782.31	1035.90
782.75	1046.90
783.19	1083.10
783.63	1100.00
784.06	1068.80
784.50	1037.10
784.94	1014.80
785.37	999.40
785.81	1004.90
786.25	986.80
786.69	994.00
787.12	986.20
787.56	981.50
788.00	983.60
788.43	982.00
788.87	971.90
789.31	969.20
789.75	974.30
790.18	963.10
790.62	974.00
791.06	973.80
791.49	974.80
791.93	969.00
792.37	958.60
792.80	973.40
793.24	1003.50
793.68	1037.10
794.11	1088.30
794.55	1100.00
794.99	1065.90
795.42	1035.00
795.86	980.90
796.30	960.90
796.73	959.50
797.17	942.50
797.61	951.60
798.04	948.30
798.48	929.00
798.91	941.30
799.35	962.90
799.79	980.00
800.22	1003.30
800.66	996.30
801.10	966.90
801.53	948.00
801.97	920.90
802.40	928.20
802.84	937.10
803.28	939.80
803.71	969.80
804.15	1052.60
804.58	1110.40
805.02	1131.60
805.46	1043.90
805.89	973.80
806.33	942.90
806.76	912.60
807.20	907.40
807.63	913.90
808.07	908.80
808.51	925.30
808.94	931.70
809.38	927.50
809.81	920.90
810.25	905.40
810.68	891.70
811.12	899.60
811.55	882.40
811.99	887.80
812.42	885.10
812.86	879.60
813.29	884.50
813.73	883.90
814.17	870.20
814.60	873.80
815.04	872.30
815.47	879.80
815.91	881.00
816.34	879.30
816.78	872.10
817.21	881.10
817.65	868.20
818.08	872.40
818.52	884.60
818.95	887.60
819.39	889.60
819.82	888.20
820.25	895.60
820.69	901.80
821.12	893.20
821.56	917.90
821.99	948.20
822.43	956.20
822.86	964.40
823.30	922.60
823.73	895.20
824.17	881.30
824.60	877.40
825.04	861.70
825.47	865.60
825.90	850.50
826.34	845.60
826.77	851.90
827.21	838.00
827.64	848.10
828.08	843.50
828.51	835.70
828.94	831.30
829.38	841.00
829.81	830.70
830.25	840.80
830.68	830.70
831.11	839.40
831.55	853.10
831.98	851.60
832.42	898.10
832.85	950.60
833.28	978.70
833.72	940.80
834.15	892.30
834.58	859.40
835.02	844.70
835.45	828.00
835.88	835.20
836.32	837.60
836.75	823.70
837.19	835.40
837.62	850.60
838.05	854.50
838.49	891.60
838.92	939.20
839.35	956.20
839.79	924.70
840.22	868.30
840.65	848.10
841.09	828.60
841.52	820.80
841.95	815.90
842.39	812.60
842.82	808.40
843.25	802.10
843.68	801.20
844.12	808.20
844.55	811.90
844.98	803.10
845.42	804.30
845.85	810.60
846.28	803.30
846.71	818.10
847.15	838.60
847.58	835.50
848.01	829.10
848.45	818.00
848.88	795.80
849.31	802.20
849.74	804.40
850.18	802.30
850.61	809.20
851.04	806.70
851.47	817.50
851.91	828.80
852.34	817.20
852.77	808.30
853.20	801.80
853.64	791.90
854.07	795.60
854.50	784.20
854.93	795.50
855.36	792.70
855.80	777.30
856.23	786.60
856.66	789.90
857.09	781.90
857.52	782.90
857.96	782.30
858.39	785.50
858.82	782.60
859.25	777.70
859.68	784.30
860.12	790.00
860.55	779.20
860.98	785.60
861.41	790.90
861.84	784.00
862.27	783.40
862.71	784.90
863.14	772.70
863.57	781.30
864.00	781.60
864.43	773.30
864.86	782.00
865.30	776.10
865.73	794.80
866.16	837.40
866.59	854.10
867.02	839.80
867.45	831.80
867.88	811.40
868.31	818.50
868.75	893.30
869.18	953.70
869.61	907.70
870.04	848.10
870.47	829.00
870.90	806.50
871.33	784.40
871.76	772.50
872.19	772.10
872.62	761.20
873.06	765.00
873.49	765.20
873.92	758.20
874.35	763.40
874.78	757.90
875.21	762.90
875.64	769.00
876.07	775.90
876.50	772.10
876.93	776.50
877.36	762.50
877.79	765.00
878.22	761.30
878.65	761.70
879.08	764.00
879.51	768.20
879.94	766.00
880.37	770.70
880.80	755.50
881.23	759.10
881.67	771.70
882.10	779.10
882.53	807.30
882.96	813.70
883.39	785.40
883.82	776.40
884.25	771.00
884.68	769.20
885.11	779.00
885.54	786.80
885.97	794.40
886.39	790.20
886.82	783.80
887.25	773.70
887.68	767.80
888.11	754.60
888.54	758.50
888.97	749.30
889.40	757.60
889.83	766.30
890.26	767.70
890.69	755.70
891.12	758.40
891.55	742.50
891.98	749.20
892.41	750.10
892.84	746.00
893.27	744.90
893.70	744.10
894.13	747.50
894.56	747.50
894.98	740.70
895.41	748.70
895.84	751.00
896.27	737.60
896.70	738.90
897.13	753.80
897.56	737.90
897.99	745.60
898.42	741.40
898.85	739.60
899.27	746.20
899.70	754.10
900.13	767.40
900.56	763.00
900.99	758.20
901.42	756.60
901.85	758.60
902.28	776.30
902.70	776.30
903.13	765.90
903.56	754.60
903.99	756.00
904.42	750.40
904.85	764.70
905.27	821.70
905.70	991.90
906.13	1128.00
906.56	1020.10
906.99	904.00
907.42	854.70
907.84	807.40
908.27	783.90
908.70	769.80
909.13	758.40
909.56	754.40
909.98	761.30
910.41	752.10
910.84	764.90
911.27	811.70
911.70	835.70
912.12	812.30
912.55	776.20
912.98	772.40
913.41	765.20
913.84	742.60
914.26	739.10
914.69	744.90
915.12	732.30
915.55	733.40
915.97	733.50
916.40	734.40
916.83	737.20
917.26	732.50
917.68	731.80
918.11	733.10
918.54	728.10
918.97	736.00
919.39	734.10
919.82	727.10
920.25	731.50
920.67	735.50
921.10	729.30
921.53	732.60
921.96	731.20
922.38	725.00
922.81	733.00
923.24	725.00
923.66	728.50
924.09	730.50
924.52	725.80
924.94	730.70
925.37	738.20
925.80	727.60
926.22	732.90
926.65	732.80
927.08	717.40
927.50	726.60
927.93	723.20
928.36	719.80
928.78	732.30
929.21	723.20
929.64	725.20
930.06	731.90
930.49	716.10
930.92	725.20
931.34	725.70
931.77	721.50
932.20	727.70
932.62	723.40
933.05	730.20
933.47	747.60
933.90	742.10
934.33	734.40
934.75	733.40
935.18	729.80
935.61	725.00
936.03	723.60
936.46	719.20
936.88	720.90
937.31	708.80
937.73	716.40
938.16	720.20
938.59	713.20
939.01	717.70
939.44	723.70
939.86	710.70
940.29	709.00
940.71	720.90
941.14	711.40
941.57	715.50
941.99	709.90
942.42	715.80
942.84	719.00
943.27	712.40
943.69	714.20
944.12	722.70
944.54	711.70
944.97	713.90
945.39	710.00
945.82	710.60
946.24	712.30
946.67	707.80
947.09	705.20
947.52	717.20
947.94	702.90
948.37	710.10
948.79	714.30
949.22	703.20
949.64	712.70
950.07	720.70
950.49	708.20
950.92	716.60
951.34	709.40
951.77	715.60
952.19	716.90
952.62	713.30
953.04	715.30
953.47	713.10
953.89	711.30
954.32	709.50
954.74	717.20
955.17	711.10
955.59	718.40
956.01	715.60
956.44	708.60
956.86	716.40
957.29	708.70
957.71	713.60
958.14	717.50
958.56	711.80
958.98	713.40
959.41	717.00
959.83	710.10
960.26	713.40
960.68	714.30
961.10	717.80
961.53	717.60
961.95	708.40
962.38	712.80
962.80	718.60
963.22	713.40
963.65	712.80
964.07	703.00
964.50	711.70
964.92	731.20
965.34	757.00
965.77	751.90
966.19	747.60
966.61	724.70
967.04	725.40
967.46	723.60
967.88	710.60
968.31	714.10
968.73	715.70
969.15	709.90
969.58	710.50
970.00	709.10
970.42	710.20
970.85	711.60
971.27	709.20
971.69	717.00
972.12	717.20
972.54	722.30
972.96	758.20
973.39	787.60
973.81	768.90
974.23	748.20
974.65	744.40
975.08	722.60
975.50	731.10
975.92	715.30
976.35	713.60
976.77	715.50
977.19	710.80
977.61	715.90
978.04	712.00
978.46	705.10
978.88	713.90
979.30	706.40
979.73	704.30
980.15	714.90
980.57	701.00
980.99	709.80
981.42	714.20
981.84	704.00
982.26	710.60
982.68	716.40
983.11	705.90
983.53	712.80
983.95	709.00
984.37	700.90
984.79	710.80
985.22	708.50
985.64	709.90
986.06	712.80
986.48	702.00
986.90	711.80
987.33	715.80
987.75	706.60
988.17	706.10
988.59	713.80
989.01	704.30
989.43	704.80
989.86	703.80
990.28	702.40
990.70	710.50
991.12	702.20
991.54	711.00
991.96	717.20
992.39	704.70
992.81	710.40
993.23	713.20
993.65	709.40
994.07	701.70
994.49	704.60
994.91	707.50
995.34	716.90
995.76	707.90
996.18	713.20
996.60	715.90
997.02	708.00
997.44	715.20
997.86	717.50
998.28	704.70
998.70	708.50
999.12	708.60
999.55	712.10
999.97	717.40
1000.39	703.60
1000.81	711.80
1001.23	711.50
1001.65	711.10
1002.07	708.50
1002.49	711.70
1002.91	710.70
1003.33	711.00
1003.75	705.90
1004.17	702.80
1004.59	710.60
1005.01	698.10
1005.43	708.70
1005.85	712.40
1006.28	699.80
1006.70	703.10
1007.12	714.20
1007.54	702.70
1007.96	703.20
1008.38	707.30
1008.80	701.70
1009.22	709.30
1009.64	704.70
1010.06	709.90
1010.48	712.80
1010.90	706.00
1011.32	703.70
1011.74	720.70
1012.16	708.50
1012.58	731.20
1013.00	750.30
1013.42	778.60
1013.84	845.90
1014.26	864.30
1014.67	855.20
1015.09	825.20
1015.51	782.60
1015.93	770.20
1016.35	751.10
1016.77	728.50
1017.19	725.20
1017.61	718.20
1018.03	712.60
1018.45	708.80
1018.87	706.50
1019.29	715.30
1019.71	713.00
1020.13	700.00
1020.55	706.70
1020.97	708.80
1021.38	703.50
1021.80	706.10
1022.22	706.80
1022.64	703.30
1023.06	710.10
1023.48	700.30
1023.90	707.20
1024.32	716.50
1024.74	703.60
1025.15	713.90
1025.57	709.00
1025.99	703.10
1026.41	700.90
1026.83	710.30
1027.25	699.20
1027.67	711.90
1028.08	701.10
1028.50	710.30
1028.92	715.00
1029.34	703.30
1029.76	707.90
1030.18	706.20
1030.60	701.70
1031.01	704.70
1031.43	705.80
1031.85	705.60
1032.27	704.40
1032.69	706.10
1033.10	699.50
1033.52	703.70
1033.94	709.70
1034.36	706.80
1034.78	708.90
1035.19	699.30
1035.61	704.60
1036.03	707.70
1036.45	704.00
1036.87	710.70
1037.28	702.50
1037.70	704.00
1038.12	710.40
1038.54	709.40
1038.95	710.30
1039.37	717.10
1039.79	702.40
1040.21	705.40
1040.62	708.10
1041.04	700.90
1041.46	704.60
1041.88	706.40
1042.29	702.00
1042.71	708.40
1043.13	698.20
1043.55	705.10
1043.96	712.40
1044.38	700.50
1044.80	700.10
1045.21	712.10
1045.63	704.20
1046.05	709.50
1046.47	712.60
1046.88	718.30
1047.30	715.00
1047.72	705.60
1048.13	706.90
1048.55	711.40
1048.97	705.00
1049.38	706.60
1049.80	710.80
1050.22	708.50
1050.63	703.50
1051.05	710.70
1051.47	707.20
1051.88	712.30
1052.30	707.20
1052.72	713.60
1053.13	707.80
1053.55	704.70
1053.97	705.50
1054.38	712.60
1054.80	705.30
1055.21	710.70
1055.63	711.40
1056.05	704.00
1056.46	709.60
1056.88	711.20
1057.29	709.10
1057.71	713.20
1058.13	700.80
1058.54	708.00
1058.96	715.10
1059.37	703.50
1059.79	710.60
1060.21	715.40
1060.62	701.40
1061.04	707.70
1061.45	707.30
1061.87	713.60
1062.28	710.60
1062.70	701.20
1063.12	711.30
1063.53	711.30
1063.95	704.60
1064.36	714.10
1064.78	719.50
1065.19	705.50
1065.61	709.80
1066.02	705.80
1066.44	707.30
1066.85	710.50
1067.27	707.10
1067.68	713.20
1068.10	715.60
1068.51	706.50
1068.93	715.50
1069.35	713.80
1069.76	700.80
1070.17	712.70
1070.59	706.80
1071.00	713.50
1071.42	709.70
1071.83	705.70
1072.25	702.10
1072.66	717.00
1073.08	705.90
1073.49	709.40
1073.91	712.10
1074.32	715.90
1074.74	715.20
1075.15	714.10
1075.57	711.30
1075.98	714.80
1076.40	711.30
1076.81	715.30
1077.22	714.90
1077.64	717.00
1078.05	712.70
1078.47	715.50
1078.88	710.30
1079.30	715.50
1079.71	717.10
1080.12	715.60
1080.54	720.20
1080.95	713.50
1081.37	715.70
1081.78	715.40
1082.19	713.00
1082.61	720.20
1083.02	718.90
1083.44	708.20
1083.85	713.60
1084.26	709.20
1084.68	712.90
1085.09	717.20
1085.50	710.30
1085.92	715.50
1086.33	719.20
1086.74	714.10
1087.16	717.20
1087.57	718.40
1087.98	716.00
1088.40	716.30
1088.81	721.50
1089.22	716.50
1089.64	721.10
1090.05	709.10
1090.46	718.20
1090.88	723.50
1091.29	716.30
1091.70	721.10
1092.12	723.80
1092.53	715.60
1092.94	715.30
1093.36	718.50
1093.77	716.00
1094.18	720.40
1094.59	715.50
1095.01	719.10
1095.42	720.00
1095.83	713.30
1096.25	722.40
1096.66	721.70
1097.07	716.80
1097.48	723.60
1097.90	721.50
1098.31	719.00
1098.72	721.40
1099.13	714.20
>>>>>End Processed Spectral Data<<<<<
