wavelength,"0","30","60","90"
400.35,0.07339,0.08333,0.06367,0.06267
400.81,0.07298,0.08307,0.06342,0.06212
401.27,0.0726,0.08281,0.06317,0.06159
401.73,0.07222,0.08256,0.06292,0.06107
402.19,0.07186,0.08231,0.06268,0.06058
402.65,0.07151,0.08206,0.06245,0.0601
403.12,0.07118,0.08182,0.06221,0.05965
403.58,0.07086,0.08158,0.06198,0.05921
404.04,0.07056,0.08135,0.06176,0.05879
404.5,0.07027,0.08112,0.06153,0.05839
404.96,0.06999,0.08089,0.06131,0.05801
405.42,0.06973,0.08067,0.0611,0.05764
405.88,0.06948,0.08045,0.06088,0.0573
406.34,0.06925,0.08024,0.06067,0.05697
406.81,0.06903,0.08003,0.06047,0.05666
407.27,0.06882,0.07982,0.06026,0.05637
407.73,0.06863,0.07962,0.06006,0.0561
408.19,0.06845,0.07942,0.05987,0.05585
408.65,0.06829,0.07923,0.05968,0.05562
409.11,0.06814,0.07904,0.05949,0.0554
409.57,0.068,0.07885,0.0593,0.05521
410.03,0.06784,0.07867,0.05918,0.05512
410.49,0.06772,0.07849,0.05904,0.05502
410.96,0.06763,0.07832,0.05887,0.05495
411.42,0.06757,0.07815,0.05871,0.05491
411.88,0.06751,0.07798,0.05856,0.05486
412.34,0.06747,0.07781,0.05835,0.05482
412.8,0.06744,0.07765,0.05814,0.05475
413.26,0.06741,0.07746,0.05797,0.05467
413.72,0.06737,0.07728,0.05779,0.0546
414.18,0.06735,0.07717,0.05762,0.05454
414.64,0.06735,0.07706,0.05753,0.05451
415.1,0.06737,0.07696,0.05741,0.05446
415.56,0.06741,0.07681,0.05734,0.0544
416.02,0.06747,0.07668,0.05726,0.05431
416.48,0.06752,0.07659,0.05715,0.05414
416.95,0.06757,0.07649,0.05705,0.05401
417.41,0.06759,0.07644,0.05692,0.05382
417.87,0.06757,0.07643,0.05672,0.05359
418.33,0.06752,0.07642,0.05657,0.0534
418.79,0.06745,0.07643,0.05642,0.05322
419.25,0.06735,0.07641,0.05628,0.05301
419.71,0.06725,0.07632,0.05618,0.05281
420.17,0.06716,0.07619,0.05601,0.05256
420.63,0.06706,0.07604,0.05591,0.05236
421.09,0.06695,0.07586,0.0558,0.0522
421.55,0.06683,0.07564,0.0557,0.052
422.01,0.06667,0.07538,0.0556,0.05172
422.47,0.06647,0.07512,0.05548,0.05147
422.93,0.06623,0.07489,0.0554,0.05131
423.39,0.06597,0.07475,0.05535,0.05119
423.85,0.06569,0.07458,0.05532,0.05106
424.31,0.06541,0.07437,0.05529,0.05093
424.77,0.06515,0.07419,0.05521,0.05076
425.23,0.06491,0.07402,0.0551,0.05064
425.69,0.0647,0.07388,0.055,0.05057
426.15,0.06455,0.07369,0.05487,0.05049
426.61,0.06444,0.0735,0.05476,0.05042
427.07,0.06438,0.07332,0.05465,0.05036
427.53,0.06436,0.07317,0.05458,0.05037
427.99,0.06437,0.07302,0.0545,0.05039
428.45,0.06441,0.07285,0.05445,0.05037
428.91,0.06446,0.0727,0.05436,0.0503
429.37,0.06449,0.07256,0.0543,0.05026
429.83,0.06451,0.07239,0.05417,0.05021
430.29,0.06451,0.07223,0.05405,0.05016
430.75,0.06451,0.07205,0.05394,0.05007
431.21,0.06449,0.07186,0.05382,0.05
431.67,0.06448,0.0717,0.05368,0.04999
432.13,0.06449,0.07155,0.05358,0.05
432.59,0.06453,0.07143,0.05355,0.05002
433.05,0.0646,0.07132,0.05356,0.0501
433.51,0.06467,0.07118,0.05354,0.05014
433.97,0.06474,0.07101,0.05354,0.05017
434.43,0.06479,0.07088,0.05352,0.05021
434.89,0.06481,0.07083,0.05353,0.05024
435.35,0.0648,0.07082,0.05358,0.05031
435.81,0.06477,0.07078,0.05362,0.05038
436.27,0.06474,0.0707,0.0537,0.05044
436.73,0.06472,0.07066,0.05382,0.05045
437.19,0.06472,0.07066,0.0539,0.05052
437.65,0.06474,0.07067,0.05401,0.05059
438.11,0.06478,0.07065,0.05416,0.0507
438.57,0.06481,0.07062,0.05421,0.05081
439.03,0.06485,0.07063,0.05429,0.05091
439.48,0.06487,0.07066,0.05428,0.05101
439.94,0.06486,0.07068,0.0543,0.0511
440.4,0.06482,0.0707,0.0543,0.05114
440.86,0.06476,0.07064,0.05427,0.05117
441.32,0.0647,0.07057,0.05426,0.05121
441.78,0.06464,0.0705,0.05417,0.05119
442.24,0.06459,0.0704,0.05411,0.05118
442.7,0.06453,0.07032,0.05399,0.05116
443.16,0.0645,0.07024,0.0539,0.05112
443.62,0.06448,0.07019,0.0538,0.05111
444.08,0.06449,0.07011,0.05371,0.05113
444.54,0.06448,0.07006,0.05361,0.05111
444.99,0.06447,0.07004,0.05359,0.05114
445.45,0.06444,0.07005,0.0535,0.05111
445.91,0.06441,0.07008,0.05345,0.05114
446.37,0.06437,0.07008,0.05335,0.05106
446.83,0.06429,0.07009,0.05324,0.05096
447.29,0.06419,0.07009,0.05308,0.05087
447.75,0.06408,0.07009,0.0529,0.05081
448.21,0.06396,0.07002,0.05269,0.05073
448.67,0.06386,0.06995,0.05257,0.05066
449.12,0.06376,0.06986,0.05245,0.0506
449.58,0.06369,0.06973,0.05229,0.05063
450.04,0.06365,0.06963,0.05222,0.05066
450.5,0.06364,0.06955,0.05217,0.05067
450.96,0.06365,0.06946,0.05217,0.05069
451.42,0.06367,0.0694,0.0522,0.05071
451.88,0.0637,0.06934,0.05218,0.0507
452.34,0.06373,0.06925,0.05218,0.05069
452.79,0.06377,0.06916,0.0522,0.05064
453.25,0.0638,0.06912,0.05225,0.0506
453.71,0.06384,0.06906,0.05228,0.05057
454.17,0.06391,0.069,0.0523,0.05055
454.63,0.06399,0.06899,0.05231,0.05053
455.09,0.0641,0.06896,0.05233,0.05047
455.55,0.06421,0.06894,0.05237,0.05052
456,0.06434,0.06889,0.05242,0.05057
456.46,0.06445,0.06883,0.05245,0.05058
456.92,0.06456,0.06877,0.05248,0.05058
457.38,0.06466,0.06876,0.05254,0.05053
457.84,0.06473,0.06873,0.05259,0.05044
458.3,0.06478,0.06872,0.05267,0.05039
458.75,0.06483,0.06869,0.0527,0.05029
459.21,0.06487,0.06867,0.05273,0.05018
459.67,0.06493,0.06871,0.05279,0.05014
460.13,0.06498,0.06874,0.05282,0.05007
460.59,0.06503,0.06872,0.05291,0.05008
461.04,0.06509,0.0687,0.05293,0.05014
461.5,0.06517,0.06865,0.05298,0.05017
461.96,0.06523,0.06864,0.05299,0.05021
462.42,0.06528,0.06864,0.05304,0.05026
462.88,0.06531,0.06864,0.05305,0.05029
463.33,0.06534,0.06865,0.05308,0.05029
463.79,0.06535,0.0687,0.05308,0.05026
464.25,0.06537,0.0688,0.05312,0.05024
464.71,0.06539,0.06894,0.05313,0.05019
465.17,0.06542,0.06903,0.05314,0.0502
465.62,0.06547,0.0691,0.05314,0.05021
466.08,0.06555,0.06914,0.05318,0.05024
466.54,0.06562,0.06923,0.05328,0.05029
467,0.0657,0.06927,0.05333,0.05033
467.46,0.06578,0.06933,0.05335,0.05035
467.91,0.06584,0.06937,0.05331,0.05033
468.37,0.0659,0.06946,0.05332,0.05029
468.83,0.06597,0.06953,0.05329,0.05024
469.29,0.06604,0.06962,0.05326,0.05012
469.74,0.06612,0.06972,0.05321,0.05003
470.2,0.0662,0.06982,0.05318,0.04994
470.66,0.0663,0.0699,0.0532,0.04987
471.12,0.06642,0.06998,0.05321,0.04985
471.57,0.06656,0.0701,0.05322,0.04987
472.03,0.06669,0.07022,0.05324,0.0499
472.49,0.06684,0.07031,0.05328,0.04998
472.95,0.06699,0.07046,0.05332,0.05006
473.4,0.06716,0.07064,0.05334,0.05008
473.86,0.06734,0.07077,0.05338,0.05017
474.32,0.06751,0.0709,0.05347,0.05025
474.78,0.06768,0.07101,0.05353,0.05026
475.23,0.06787,0.0711,0.05363,0.05032
475.69,0.06805,0.07122,0.05371,0.05032
476.15,0.06822,0.07129,0.05378,0.05032
476.6,0.06838,0.07134,0.05385,0.05035
477.06,0.06852,0.07138,0.05387,0.05037
477.52,0.06865,0.07143,0.0539,0.05036
477.98,0.06876,0.07147,0.05392,0.05035
478.43,0.06887,0.07154,0.05395,0.05031
478.89,0.06898,0.07157,0.05394,0.05029
479.35,0.0691,0.0716,0.05391,0.05028
479.8,0.06923,0.07165,0.05392,0.05023
480.26,0.06935,0.07171,0.05393,0.05016
480.72,0.06947,0.07173,0.05395,0.05014
481.18,0.0696,0.07177,0.05397,0.05012
481.63,0.06974,0.07179,0.05404,0.05009
482.09,0.06988,0.07182,0.05411,0.05012
482.55,0.07004,0.07186,0.05423,0.05017
483,0.07021,0.07187,0.05432,0.05027
483.46,0.0704,0.0719,0.05442,0.05039
483.92,0.07059,0.07199,0.05452,0.05049
484.37,0.07078,0.07203,0.05464,0.05059
484.83,0.07096,0.07211,0.05471,0.05068
485.29,0.07115,0.0722,0.05474,0.05069
485.74,0.07133,0.07231,0.05477,0.05068
486.2,0.07152,0.07242,0.0548,0.05069
486.66,0.07174,0.07253,0.05486,0.05074
487.11,0.07197,0.0726,0.05494,0.05078
487.57,0.07223,0.07264,0.05502,0.05081
488.03,0.07249,0.07268,0.05515,0.05093
488.48,0.07277,0.07271,0.05528,0.05106
488.94,0.07304,0.07282,0.05539,0.05117
489.4,0.07332,0.07292,0.05551,0.05127
489.85,0.07358,0.07303,0.05558,0.05136
490.31,0.07385,0.07317,0.05567,0.05143
490.77,0.07414,0.07336,0.05576,0.05154
491.22,0.07446,0.07352,0.05582,0.05162
491.68,0.07481,0.07367,0.05587,0.05172
492.13,0.07519,0.07381,0.05601,0.05191
492.59,0.07556,0.07397,0.05616,0.0521
493.05,0.07593,0.07412,0.05627,0.05221
493.5,0.07628,0.07425,0.05638,0.05234
493.96,0.07658,0.07443,0.05644,0.0524
494.42,0.07684,0.07466,0.05646,0.05246
494.87,0.07705,0.07492,0.05651,0.05251
495.33,0.07725,0.07519,0.0565,0.05254
495.78,0.07746,0.07549,0.05651,0.05254
496.24,0.07769,0.0758,0.05659,0.05265
496.7,0.07794,0.07607,0.0567,0.05275
497.15,0.07823,0.07631,0.05683,0.05289
497.61,0.07853,0.07654,0.05702,0.05303
498.06,0.07884,0.07673,0.05723,0.05315
498.52,0.07915,0.07689,0.05751,0.05326
498.98,0.07945,0.07704,0.05779,0.05345
499.43,0.07974,0.07723,0.05808,0.05358
499.89,0.08002,0.07741,0.05838,0.05372
500.34,0.0803,0.07761,0.05868,0.05391
500.8,0.0806,0.07778,0.05902,0.05415
501.25,0.08091,0.07796,0.0593,0.05439
501.71,0.08123,0.07809,0.05957,0.0546
502.17,0.08155,0.07823,0.05983,0.0548
502.62,0.08185,0.07838,0.06009,0.05497
503.08,0.08214,0.07853,0.06033,0.05516
503.53,0.08241,0.0787,0.06053,0.0553
503.99,0.08267,0.07889,0.06065,0.05543
504.44,0.08292,0.07913,0.06082,0.05552
504.9,0.08318,0.07938,0.06097,0.0556
505.36,0.08346,0.07963,0.06113,0.05565
505.81,0.08375,0.07989,0.06131,0.05571
506.27,0.08407,0.08018,0.06152,0.05576
506.72,0.08441,0.08045,0.06174,0.05577
507.18,0.08475,0.08069,0.06194,0.05579
507.63,0.0851,0.08097,0.06216,0.05591
508.09,0.08544,0.08125,0.06237,0.05603
508.54,0.0858,0.08154,0.06255,0.05615
509,0.08616,0.08182,0.06272,0.05632
509.45,0.08651,0.08207,0.06285,0.05646
509.91,0.08685,0.08229,0.06297,0.05664
510.36,0.08715,0.08254,0.06308,0.05683
510.82,0.08743,0.08278,0.06315,0.05695
511.27,0.08768,0.08302,0.06322,0.05706
511.73,0.08793,0.08327,0.06326,0.05719
512.19,0.08815,0.08348,0.06333,0.0573
512.64,0.08838,0.08369,0.06343,0.05744
513.1,0.08863,0.08392,0.06353,0.05754
513.55,0.0889,0.08414,0.06367,0.05764
514.01,0.0892,0.08437,0.06388,0.0578
514.46,0.08952,0.08462,0.06408,0.05795
514.92,0.08986,0.08487,0.06426,0.05804
515.37,0.09021,0.08522,0.06444,0.05818
515.83,0.09058,0.08553,0.06464,0.05829
516.28,0.09095,0.08587,0.06491,0.05845
516.73,0.09132,0.08623,0.06516,0.05864
517.19,0.09169,0.0866,0.06539,0.05879
517.64,0.09206,0.08696,0.06566,0.05898
518.1,0.09243,0.08731,0.0659,0.05921
518.55,0.09279,0.08761,0.0661,0.0594
519.01,0.09316,0.0879,0.06632,0.05956
519.46,0.09353,0.08816,0.06653,0.05969
519.92,0.0939,0.08843,0.06669,0.05982
520.37,0.09427,0.08868,0.06688,0.05998
520.83,0.09465,0.08891,0.06706,0.06009
521.28,0.09505,0.08919,0.06723,0.06023
521.74,0.09547,0.08947,0.06739,0.06033
522.19,0.09591,0.08974,0.06756,0.06042
522.65,0.09637,0.08999,0.06777,0.06053
523.1,0.09686,0.09022,0.06799,0.06063
523.55,0.09736,0.09044,0.06826,0.06077
524.01,0.09784,0.09064,0.06854,0.06095
524.46,0.09829,0.09087,0.06886,0.06112
524.92,0.09869,0.09108,0.06914,0.06129
525.37,0.09905,0.09135,0.06941,0.06147
525.83,0.09936,0.09161,0.06966,0.06169
526.28,0.09964,0.09186,0.06986,0.06183
526.73,0.0999,0.09213,0.07002,0.06199
527.19,0.10015,0.09235,0.07016,0.06215
527.64,0.10041,0.09256,0.07028,0.06229
528.1,0.10068,0.09272,0.07045,0.06245
528.55,0.10094,0.09287,0.07064,0.0626
529.01,0.10119,0.09297,0.07083,0.06273
529.46,0.10142,0.09307,0.07099,0.06287
529.91,0.10163,0.09318,0.07109,0.06295
530.37,0.1018,0.09329,0.07118,0.06296
530.82,0.10196,0.09338,0.0712,0.06296
531.28,0.1021,0.09346,0.07122,0.06293
531.73,0.10224,0.09352,0.07122,0.06288
532.18,0.1024,0.09356,0.07115,0.06287
532.64,0.10257,0.09362,0.07107,0.06289
533.09,0.10275,0.09369,0.071,0.0629
533.54,0.10294,0.09373,0.07103,0.06292
534,0.10313,0.09381,0.07111,0.06294
534.45,0.10332,0.09388,0.07119,0.06297
534.91,0.10349,0.09395,0.07126,0.06303
535.36,0.10365,0.09403,0.07135,0.06301
535.81,0.1038,0.09411,0.07144,0.06302
536.27,0.10396,0.0942,0.07148,0.063
536.72,0.10413,0.09433,0.07154,0.06299
537.17,0.10431,0.09448,0.07159,0.06297
537.63,0.10451,0.09463,0.07162,0.06296
538.08,0.10473,0.09479,0.07162,0.06297
538.54,0.10497,0.09494,0.07169,0.06302
538.99,0.10523,0.09506,0.07177,0.06303
539.44,0.1055,0.09514,0.07185,0.06307
539.9,0.10577,0.09524,0.07193,0.06312
540.35,0.10603,0.09532,0.07207,0.06321
540.8,0.10627,0.09539,0.07219,0.06328
541.26,0.10648,0.09545,0.0723,0.06335
541.71,0.10664,0.09553,0.07241,0.06342
542.16,0.10674,0.09563,0.07248,0.06346
542.62,0.10681,0.09572,0.07256,0.06351
543.07,0.10686,0.09577,0.07258,0.06352
543.52,0.1069,0.09586,0.07257,0.06354
543.98,0.10694,0.09598,0.07257,0.06361
544.43,0.10698,0.09606,0.07262,0.06365
544.88,0.10701,0.09614,0.07269,0.06374
545.34,0.10704,0.09621,0.07273,0.06382
545.79,0.10705,0.09629,0.07284,0.0639
546.24,0.10702,0.09639,0.07295,0.06401
546.69,0.10696,0.09648,0.07301,0.06411
547.15,0.10688,0.09658,0.07302,0.06412
547.6,0.10681,0.09663,0.07301,0.06415
548.05,0.10675,0.09672,0.07297,0.06415
548.51,0.10671,0.09675,0.07295,0.06414
548.96,0.10671,0.09674,0.07291,0.06417
549.41,0.10675,0.09673,0.0729,0.06415
549.86,0.10682,0.09668,0.07287,0.06412
550.32,0.1069,0.09669,0.07288,0.06414
550.77,0.10698,0.09668,0.07293,0.06416
551.22,0.10706,0.09668,0.07299,0.06408
551.68,0.10715,0.09671,0.07306,0.06404
552.13,0.10722,0.09679,0.07308,0.06399
552.58,0.1073,0.09685,0.07314,0.06394
553.03,0.10739,0.09688,0.0732,0.06392
553.49,0.10749,0.09687,0.07322,0.06382
553.94,0.10759,0.09688,0.07326,0.06375
554.39,0.1077,0.09686,0.07329,0.0637
554.84,0.10781,0.09684,0.07333,0.06366
555.3,0.10792,0.09682,0.07334,0.06356
555.75,0.10803,0.0968,0.07333,0.06348
556.2,0.10814,0.0968,0.07336,0.06345
556.65,0.10825,0.09682,0.07335,0.06341
557.11,0.10835,0.09684,0.07332,0.06334
557.56,0.10845,0.09682,0.07329,0.06327
558.01,0.10853,0.09682,0.07326,0.06316
558.46,0.10859,0.09688,0.07326,0.06309
558.92,0.10862,0.09694,0.07318,0.06298
559.37,0.10864,0.097,0.07307,0.06286
559.82,0.10865,0.09703,0.07298,0.06273
560.27,0.10865,0.09702,0.07287,0.06263
560.72,0.10865,0.09703,0.07279,0.06253
561.18,0.10865,0.09699,0.07273,0.06247
561.63,0.10864,0.09689,0.0727,0.06245
562.08,0.10864,0.0968,0.07274,0.06243
562.53,0.10861,0.09672,0.07277,0.06242
562.99,0.10857,0.09666,0.0728,0.06244
563.44,0.10851,0.09658,0.07277,0.06243
563.89,0.10845,0.09649,0.07275,0.06242
564.34,0.10839,0.09642,0.07269,0.0624
564.79,0.10833,0.09638,0.0726,0.06237
565.25,0.10827,0.09632,0.07247,0.06232
565.7,0.10821,0.09625,0.07236,0.06229
566.15,0.10817,0.09618,0.0722,0.06219
566.6,0.10813,0.09611,0.07204,0.06212
567.05,0.10808,0.09603,0.07188,0.06203
567.5,0.108,0.09594,0.07171,0.06193
567.96,0.10791,0.09584,0.07154,0.06181
568.41,0.1078,0.09574,0.07141,0.06169
568.86,0.10769,0.09562,0.07124,0.06152
569.31,0.10757,0.09551,0.07111,0.06134
569.76,0.10745,0.0954,0.07097,0.06119
570.21,0.10733,0.09527,0.07091,0.06107
570.67,0.10724,0.09514,0.07088,0.06095
571.12,0.10716,0.09497,0.0708,0.06085
571.57,0.10707,0.09481,0.07071,0.0607
572.02,0.10697,0.09466,0.07065,0.06058
572.47,0.10685,0.09451,0.07056,0.06048
572.92,0.10672,0.09435,0.07044,0.06034
573.37,0.10656,0.09416,0.07026,0.06017
573.83,0.10639,0.09397,0.07001,0.05999
574.28,0.1062,0.09377,0.06979,0.05979
574.73,0.106,0.09354,0.06958,0.05959
575.18,0.1058,0.09329,0.06937,0.0594
575.63,0.10559,0.09303,0.06919,0.05921
576.08,0.10537,0.09278,0.06899,0.05897
576.53,0.10515,0.09259,0.06879,0.05875
576.98,0.10492,0.09236,0.06861,0.0585
577.44,0.1047,0.09218,0.06842,0.05827
577.89,0.10447,0.09199,0.06827,0.05809
578.34,0.10425,0.0918,0.06811,0.05792
578.79,0.10405,0.09164,0.06796,0.05777
579.24,0.10385,0.09146,0.06781,0.05766
579.69,0.10367,0.09127,0.06766,0.05752
580.14,0.10349,0.09104,0.06754,0.05742
580.59,0.10332,0.09083,0.06736,0.05734
581.04,0.10315,0.09061,0.06717,0.05726
581.49,0.10297,0.09036,0.06693,0.05717
581.95,0.10277,0.0901,0.06669,0.05706
582.4,0.10255,0.08984,0.06644,0.05694
582.85,0.10231,0.08958,0.06616,0.0568
583.3,0.10204,0.08934,0.06586,0.05661
583.75,0.10177,0.08908,0.06556,0.05638
584.2,0.1015,0.08883,0.06526,0.05615
584.65,0.10121,0.0886,0.06499,0.05595
585.1,0.10093,0.08837,0.06473,0.05573
585.55,0.10068,0.08812,0.06448,0.05555
586,0.10043,0.08787,0.06427,0.05536
586.45,0.10019,0.08766,0.06411,0.05519
586.9,0.09996,0.08744,0.06391,0.05506
587.35,0.09975,0.08718,0.06378,0.05491
587.8,0.09954,0.08691,0.06362,0.0548
588.25,0.09935,0.08663,0.06346,0.05468
588.71,0.09914,0.0864,0.06326,0.05455
589.16,0.09892,0.08615,0.06303,0.05439
589.61,0.0987,0.0859,0.06282,0.05422
590.06,0.09847,0.08564,0.06261,0.05402
590.51,0.09822,0.08537,0.06235,0.0538
590.96,0.09797,0.08511,0.06204,0.05353
591.41,0.0977,0.08485,0.06175,0.05322
591.86,0.09741,0.08452,0.06144,0.0529
592.31,0.09713,0.08419,0.06116,0.05257
592.76,0.09683,0.08381,0.06087,0.05222
593.21,0.09654,0.08342,0.06055,0.0519
593.66,0.09624,0.08301,0.0603,0.05153
594.11,0.09595,0.08261,0.06001,0.05114
594.56,0.09566,0.08219,0.05979,0.05082
595.01,0.09537,0.08181,0.0596,0.05056
595.46,0.09508,0.08142,0.05938,0.05029
595.91,0.09479,0.08103,0.05918,0.05003
596.36,0.09449,0.08064,0.05893,0.04974
596.81,0.09418,0.08029,0.05868,0.04945
597.26,0.09386,0.07995,0.05842,0.04918
597.71,0.09354,0.07964,0.05815,0.04885
598.16,0.09321,0.0793,0.05785,0.04854
598.61,0.09289,0.079,0.05751,0.04821
599.06,0.09256,0.0787,0.05717,0.04789
599.51,0.09223,0.0784,0.05683,0.04758
599.96,0.09191,0.0781,0.05652,0.04727
600.41,0.09159,0.07779,0.05621,0.04695
600.86,0.09128,0.07746,0.05588,0.04664
601.31,0.09096,0.07715,0.05554,0.04633
601.76,0.09066,0.07679,0.05521,0.04605
602.21,0.09037,0.07643,0.05494,0.04583
602.65,0.09009,0.07607,0.05465,0.04568
603.1,0.08983,0.0757,0.05436,0.04551
603.55,0.08957,0.07535,0.05407,0.04535
604,0.08932,0.07503,0.05384,0.04518
604.45,0.08906,0.07474,0.05357,0.04502
604.9,0.0888,0.07448,0.05327,0.0449
605.35,0.08854,0.07422,0.05298,0.04474
605.8,0.08828,0.074,0.05265,0.04458
606.25,0.08801,0.07374,0.05235,0.04441
606.7,0.08775,0.0735,0.05206,0.04424
607.15,0.08749,0.07322,0.0518,0.04401
607.6,0.08725,0.07295,0.05158,0.04382
608.05,0.08701,0.07267,0.05134,0.04356
608.5,0.08679,0.0724,0.05105,0.04329
608.95,0.08657,0.07207,0.0508,0.04301
609.39,0.08636,0.07174,0.05054,0.04268
609.84,0.08615,0.07139,0.05025,0.04239
610.29,0.08592,0.07107,0.04995,0.0421
610.74,0.08568,0.07077,0.04965,0.04178
611.19,0.0854,0.07044,0.04937,0.04151
611.64,0.0851,0.07008,0.04912,0.04121
612.09,0.08477,0.06976,0.04885,0.04092
612.54,0.08441,0.06944,0.04858,0.04063
612.99,0.08403,0.06912,0.04829,0.04032
613.44,0.08363,0.06879,0.04796,0.03998
613.88,0.08322,0.06844,0.04763,0.03967
614.33,0.08281,0.06808,0.0473,0.03937
614.78,0.08242,0.06778,0.04697,0.03906
615.23,0.08204,0.06745,0.04667,0.03879
615.68,0.08169,0.06713,0.04636,0.03852
616.13,0.08136,0.06681,0.04605,0.03826
616.58,0.08105,0.0665,0.04577,0.03806
617.03,0.08075,0.06622,0.0455,0.03792
617.47,0.08047,0.06595,0.04523,0.03775
617.92,0.0802,0.06567,0.04494,0.03759
618.37,0.07992,0.06541,0.04466,0.0374
618.82,0.07964,0.06517,0.04432,0.03723
619.27,0.07937,0.06493,0.04403,0.03711
619.72,0.07909,0.06471,0.04375,0.03699
620.17,0.07882,0.06446,0.04349,0.03686
620.61,0.07854,0.06419,0.0432,0.03673
621.06,0.07827,0.06397,0.04296,0.03656
621.51,0.07798,0.06374,0.04276,0.03643
621.96,0.07769,0.06352,0.04257,0.03633
622.41,0.07739,0.06327,0.04234,0.03624
622.86,0.07709,0.06304,0.04209,0.03607
623.3,0.07678,0.06281,0.04192,0.0359
623.75,0.07646,0.0626,0.04176,0.03572
624.2,0.07613,0.06236,0.04161,0.03554
624.65,0.07581,0.06212,0.04143,0.03532
625.1,0.07548,0.06186,0.04129,0.03509
625.54,0.07514,0.06161,0.04115,0.03486
625.99,0.07479,0.06137,0.04097,0.03461
626.44,0.07442,0.06114,0.0407,0.03433
626.89,0.07403,0.0609,0.04043,0.03403
627.34,0.07362,0.06067,0.04013,0.03374
627.78,0.07319,0.06041,0.03984,0.03349
628.23,0.07274,0.06017,0.03956,0.03318
628.68,0.07227,0.05994,0.03932,0.03292
629.13,0.07181,0.05969,0.0391,0.03271
629.58,0.07135,0.05946,0.03888,0.03251
630.02,0.07091,0.05922,0.03868,0.03232
630.47,0.0705,0.05894,0.0385,0.03214
630.92,0.07011,0.05868,0.03833,0.032
631.37,0.06974,0.05841,0.03815,0.03187
631.81,0.0694,0.05816,0.03797,0.03175
632.26,0.06908,0.05787,0.03784,0.03164
632.71,0.06877,0.05762,0.03766,0.03153
633.16,0.06847,0.05734,0.03749,0.03142
633.61,0.06816,0.05706,0.03727,0.03127
634.05,0.06786,0.05675,0.03706,0.03113
634.5,0.06755,0.05647,0.03687,0.03104
634.95,0.06723,0.05616,0.03664,0.03095
635.4,0.0669,0.05587,0.0364,0.03082
635.84,0.06654,0.05559,0.03615,0.03069
636.29,0.06617,0.05534,0.03594,0.03055
636.74,0.06579,0.0551,0.03566,0.03039
637.18,0.06543,0.05486,0.03544,0.03027
637.63,0.06508,0.0546,0.0352,0.03012
638.08,0.06474,0.05435,0.03498,0.02998
638.53,0.06444,0.0541,0.03482,0.02983
638.97,0.06416,0.05386,0.03464,0.0297
639.42,0.06391,0.05364,0.03444,0.02953
639.87,0.06366,0.05343,0.03426,0.02936
640.32,0.06343,0.05325,0.03409,0.02916
640.76,0.06319,0.05307,0.03393,0.02896
641.21,0.06297,0.05287,0.03381,0.02879
641.66,0.06274,0.0527,0.03365,0.02863
642.1,0.06249,0.05255,0.03352,0.02847
642.55,0.06223,0.05235,0.03343,0.02833
643,0.06196,0.05217,0.03333,0.02815
643.44,0.06167,0.052,0.03319,0.02801
643.89,0.06137,0.05182,0.03304,0.02786
644.34,0.06107,0.05163,0.03283,0.02767
644.79,0.06077,0.05141,0.03265,0.02751
645.23,0.06049,0.05121,0.03251,0.02735
645.68,0.06022,0.05097,0.03239,0.0272
646.13,0.05995,0.05071,0.03228,0.02706
646.57,0.05968,0.05046,0.03218,0.02697
647.02,0.05942,0.0502,0.03207,0.02687
647.47,0.05917,0.04998,0.03195,0.02674
647.91,0.05892,0.0498,0.03188,0.02661
648.36,0.05867,0.04963,0.03179,0.02649
648.81,0.05842,0.0495,0.03167,0.02639
649.25,0.05818,0.04938,0.03156,0.02628
649.7,0.05794,0.04927,0.03145,0.02619
650.15,0.0577,0.04913,0.03139,0.02614
650.59,0.05745,0.04901,0.03132,0.02607
651.04,0.05719,0.04887,0.03124,0.02603
651.48,0.05691,0.0487,0.03118,0.02598
651.93,0.05662,0.04851,0.03107,0.02593
652.38,0.05632,0.0483,0.03096,0.02588
652.82,0.05599,0.04812,0.0308,0.02584
653.27,0.05566,0.04794,0.03063,0.02575
653.72,0.05535,0.04777,0.03045,0.02566
654.16,0.05506,0.04758,0.03023,0.02553
654.61,0.0548,0.04743,0.03001,0.02541
655.06,0.05459,0.04726,0.02984,0.02537
655.5,0.05442,0.04708,0.02968,0.02526
655.95,0.0543,0.04691,0.02958,0.0252
656.39,0.05422,0.0467,0.02945,0.0251
656.84,0.05415,0.04656,0.02933,0.02505
657.29,0.0541,0.04639,0.02926,0.02504
657.73,0.05404,0.04625,0.02923,0.02502
658.18,0.05398,0.04611,0.02917,0.02501
658.62,0.05391,0.04599,0.02912,0.02499
659.07,0.05382,0.04585,0.02907,0.02497
659.52,0.05371,0.04571,0.02903,0.02496
659.96,0.05359,0.04558,0.02899,0.02492
660.41,0.05347,0.04548,0.02889,0.02487
660.85,0.05333,0.04538,0.02877,0.02478
661.3,0.0532,0.04532,0.02865,0.02468
661.74,0.05306,0.04525,0.02853,0.02456
662.19,0.05292,0.0452,0.02838,0.02447
662.64,0.05277,0.04511,0.02827,0.02438
663.08,0.0526,0.04497,0.02816,0.02428
663.53,0.05242,0.04485,0.0281,0.02421
663.97,0.05223,0.04474,0.02807,0.02412
664.42,0.05202,0.04459,0.02803,0.02403
664.86,0.0518,0.0444,0.02798,0.02392
665.31,0.05159,0.04424,0.02794,0.02381
665.75,0.05137,0.04408,0.02797,0.02372
666.2,0.05115,0.04395,0.02795,0.02365
666.65,0.05093,0.04378,0.02793,0.02358
667.09,0.05071,0.04358,0.02788,0.02351
667.54,0.0505,0.04342,0.02786,0.02345
667.98,0.05029,0.04323,0.02785,0.02341
668.43,0.05007,0.04306,0.0278,0.02337
668.87,0.04984,0.0429,0.0277,0.02329
669.32,0.04961,0.04275,0.02759,0.02317
669.76,0.04938,0.04264,0.02743,0.02306
670.21,0.04914,0.04258,0.02725,0.02291
670.65,0.04889,0.04251,0.02708,0.02277
671.1,0.04865,0.04244,0.02691,0.02267
671.54,0.04843,0.04234,0.02674,0.02254
671.99,0.04824,0.04223,0.02661,0.02245
672.43,0.04807,0.04211,0.02654,0.02241
672.88,0.04791,0.04197,0.02647,0.02238
673.32,0.04777,0.04186,0.0264,0.02235
673.77,0.04763,0.04174,0.02633,0.02236
674.21,0.04749,0.04163,0.02623,0.02231
674.66,0.04734,0.04155,0.02616,0.02234
675.1,0.04717,0.04148,0.02606,0.0223
675.55,0.04698,0.04139,0.02596,0.02227
675.99,0.04679,0.04131,0.02585,0.02223
676.44,0.04658,0.0412,0.02573,0.02219
676.88,0.04635,0.04109,0.0256,0.02214
677.33,0.04613,0.04096,0.02545,0.02209
677.77,0.04588,0.04083,0.02527,0.02201
678.22,0.04563,0.04069,0.02508,0.02193
678.66,0.04538,0.04059,0.02491,0.02186
679.11,0.04513,0.04051,0.02476,0.0218
679.55,0.04489,0.04043,0.02463,0.02179
679.99,0.04464,0.04038,0.02453,0.02179
680.44,0.04441,0.04036,0.02446,0.02181
680.88,0.04419,0.04033,0.02441,0.02183
681.33,0.04398,0.04027,0.02442,0.02188
681.77,0.04377,0.0402,0.02444,0.02192
682.22,0.04354,0.04013,0.02443,0.02194
682.66,0.0433,0.04003,0.02442,0.02194
683.11,0.04304,0.03991,0.02444,0.02192
683.55,0.04274,0.03978,0.02445,0.02185
683.99,0.04242,0.03962,0.02441,0.02178
684.44,0.04208,0.03946,0.02435,0.0217
684.88,0.04175,0.0393,0.02426,0.02158
685.33,0.04142,0.03916,0.02423,0.02149
685.77,0.0411,0.03905,0.02416,0.0214
686.21,0.0408,0.03891,0.02408,0.02131
686.66,0.04051,0.03876,0.02396,0.02121
687.1,0.04024,0.03861,0.02384,0.02109
687.55,0.03998,0.03849,0.02373,0.02098
687.99,0.03974,0.03833,0.02362,0.02083
688.44,0.03951,0.03818,0.02352,0.0207
688.88,0.0393,0.03802,0.02348,0.02063
689.32,0.0391,0.03788,0.02346,0.02054
689.77,0.03889,0.03777,0.02348,0.02053
690.21,0.03869,0.03766,0.02348,0.0205
690.65,0.03849,0.03755,0.02343,0.02047
691.1,0.03829,0.03747,0.02338,0.02047
691.54,0.03807,0.03737,0.02336,0.02044
691.99,0.03786,0.03729,0.02333,0.02039
692.43,0.03764,0.03716,0.02328,0.02037
692.87,0.0374,0.03701,0.02319,0.02029
693.32,0.03716,0.03684,0.0231,0.02027
693.76,0.0369,0.03668,0.02301,0.02019
694.2,0.03662,0.03652,0.02289,0.02014
694.65,0.03634,0.03637,0.02272,0.02008
695.09,0.03607,0.03623,0.02256,0.01999
695.53,0.0358,0.03615,0.02239,0.0199
695.98,0.03555,0.03608,0.02227,0.01986
696.42,0.03533,0.03601,0.02217,0.01981
696.86,0.03514,0.03594,0.02211,0.01977
697.31,0.03495,0.03587,0.02208,0.01973
697.75,0.03479,0.03585,0.0221,0.01973
698.19,0.03462,0.03583,0.02214,0.01979
698.64,0.03446,0.03577,0.0222,0.01983
699.08,0.03428,0.03569,0.0223,0.01993
699.52,0.03407,0.03562,0.02238,0.01999
699.97,0.03382,0.03556,0.02244,0.02004
700.41,0.03357,0.0355,0.0225,0.0201
700.85,0.0333,0.03546,0.02251,0.02014
701.3,0.03303,0.03537,0.02247,0.02015
701.74,0.03277,0.0353,0.02239,0.02014
702.18,0.03253,0.0352,0.02231,0.0201
702.63,0.03231,0.03514,0.0222,0.02008
703.07,0.03211,0.03503,0.02213,0.02007
703.51,0.03193,0.03495,0.022,0.01999
703.96,0.03174,0.03486,0.02189,0.0199
704.4,0.03153,0.03477,0.02183,0.01982
704.84,0.0313,0.03469,0.02184,0.01974
705.28,0.03105,0.03463,0.02186,0.01971
705.73,0.03079,0.03458,0.02191,0.01972
706.17,0.03051,0.03454,0.02193,0.01974
706.61,0.03022,0.03451,0.02203,0.01984
707.06,0.02994,0.03448,0.02213,0.01992
707.5,0.02968,0.03446,0.02218,0.02001
707.94,0.02944,0.03445,0.02216,0.02004
708.38,0.02922,0.03441,0.02218,0.02007
708.83,0.02902,0.03437,0.02216,0.02008
709.27,0.02883,0.03437,0.02214,0.02003
709.71,0.02867,0.03434,0.02207,0.02
710.15,0.02853,0.03431,0.022,0.01998
710.6,0.02839,0.03428,0.02193,0.01997
711.04,0.02827,0.03423,0.02191,0.02004
711.48,0.02817,0.03417,0.02186,0.02008
711.92,0.02808,0.03411,0.02177,0.02012
712.37,0.028,0.03402,0.02169,0.02018
712.81,0.02794,0.03394,0.02163,0.02022
713.25,0.02789,0.03387,0.02157,0.02031
713.69,0.02785,0.0338,0.02153,0.02036
714.13,0.02782,0.03377,0.02153,0.02042
714.58,0.02781,0.03374,0.02157,0.02053
715.02,0.02781,0.03375,0.02166,0.02066
715.46,0.02785,0.03378,0.02178,0.02088
715.9,0.02791,0.03381,0.02191,0.02111
716.35,0.02799,0.03389,0.02208,0.02132
716.79,0.02808,0.03395,0.02221,0.02157
717.23,0.02819,0.03402,0.02233,0.02177
717.67,0.02829,0.03411,0.02244,0.02196
718.11,0.02838,0.03415,0.02246,0.02207
718.56,0.02845,0.03418,0.02246,0.02212
719,0.02849,0.03421,0.02245,0.02214
719.44,0.0285,0.03425,0.02244,0.02214
719.88,0.02848,0.0343,0.02246,0.02212
720.32,0.02844,0.03426,0.02246,0.0221
720.76,0.02838,0.03422,0.02252,0.02207
721.21,0.02828,0.03421,0.02262,0.02204
721.65,0.02817,0.03424,0.02275,0.02205
722.09,0.02805,0.0343,0.0229,0.02211
722.53,0.02792,0.03434,0.02304,0.02218
722.97,0.0278,0.03439,0.02313,0.02223
723.41,0.02769,0.03444,0.0232,0.02229
723.86,0.02757,0.03451,0.02329,0.02227
724.3,0.02747,0.03459,0.02338,0.0223
724.74,0.02737,0.03469,0.02346,0.0223
725.18,0.02728,0.03474,0.0235,0.02229
725.62,0.02721,0.03484,0.02358,0.02225
726.06,0.02715,0.03493,0.0237,0.02222
726.5,0.0271,0.03503,0.02379,0.02224
726.95,0.02707,0.03517,0.02391,0.02231
727.39,0.02707,0.03531,0.02404,0.0224
727.83,0.0271,0.03546,0.02417,0.02252
728.27,0.02713,0.03561,0.0243,0.02266
728.71,0.02717,0.03576,0.02443,0.02284
729.15,0.02722,0.03591,0.02451,0.02303
729.59,0.02728,0.03606,0.02462,0.02319
730.03,0.02734,0.03621,0.02476,0.02343
730.48,0.02742,0.03633,0.02492,0.02365
730.92,0.0275,0.03647,0.02509,0.02383
731.36,0.0276,0.03663,0.0253,0.02399
731.8,0.02773,0.03675,0.02555,0.02423
732.24,0.02789,0.03689,0.0258,0.02448
732.68,0.02808,0.037,0.02603,0.02471
733.12,0.02828,0.03713,0.02619,0.02496
733.56,0.02848,0.03724,0.02636,0.02518
734,0.02867,0.03738,0.02649,0.02543
734.44,0.02882,0.03749,0.02661,0.02571
734.89,0.02894,0.03757,0.02675,0.02589
735.33,0.02901,0.03761,0.02683,0.02605
735.77,0.02902,0.03771,0.02685,0.02622
736.21,0.029,0.03778,0.02695,0.02639
736.65,0.02895,0.03783,0.02702,0.02657
737.09,0.02889,0.03787,0.0271,0.02665
737.53,0.02884,0.03787,0.02711,0.02666
737.97,0.02879,0.0379,0.02712,0.02674
738.41,0.02875,0.03791,0.02714,0.02684
738.85,0.02872,0.03788,0.02718,0.02691
739.29,0.02869,0.03784,0.02716,0.027
739.73,0.02865,0.03778,0.02712,0.02707
740.17,0.0286,0.03769,0.0271,0.02714
740.61,0.02852,0.03763,0.02706,0.02718
741.05,0.02841,0.0376,0.02703,0.02716
741.49,0.02829,0.03754,0.02706,0.02711
741.93,0.02816,0.0375,0.02701,0.02708
742.37,0.02804,0.03749,0.02698,0.02703
742.81,0.02793,0.03749,0.02698,0.02693
743.26,0.02785,0.03751,0.02691,0.02682
743.7,0.02779,0.0375,0.02684,0.02675
744.14,0.02778,0.03748,0.02677,0.02674
744.58,0.0278,0.03739,0.02672,0.02672
745.02,0.02783,0.03736,0.02666,0.02665
745.46,0.02787,0.0373,0.02662,0.02662
745.9,0.02791,0.03723,0.02658,0.02658
746.34,0.02795,0.03719,0.02654,0.02654
746.78,0.02799,0.03721,0.02648,0.02647
747.22,0.02803,0.03723,0.02646,0.02637
747.66,0.02807,0.03732,0.02642,0.02628
748.1,0.02814,0.03738,0.02642,0.02616
748.54,0.02823,0.03743,0.02636,0.02608
748.98,0.02833,0.03751,0.0264,0.02607
749.42,0.02843,0.03752,0.02644,0.02611
749.86,0.02855,0.0375,0.02647,0.02614
750.29,0.02864,0.03745,0.02644,0.02617
750.73,0.02871,0.0374,0.02647,0.02622
751.17,0.02874,0.03736,0.02654,0.02632
751.61,0.02873,0.03735,0.0266,0.02637
752.05,0.02869,0.03731,0.02666,0.02639
752.49,0.02864,0.03729,0.02665,0.02637
752.93,0.02857,0.03729,0.02667,0.02637
753.37,0.02849,0.0373,0.02666,0.02638
753.81,0.02842,0.03727,0.02672,0.02637
754.25,0.02835,0.03727,0.02667,0.02635
754.69,0.02829,0.0372,0.02664,0.02627
755.13,0.02822,0.03713,0.02654,0.02625
755.57,0.02811,0.03705,0.02652,0.02626
756.01,0.02796,0.03697,0.0265,0.02624
756.45,0.0278,0.03686,0.02649,0.02621
756.89,0.0276,0.03674,0.02641,0.02607
757.33,0.02737,0.03663,0.02633,0.02595
757.77,0.02711,0.03656,0.0263,0.0258
758.21,0.02684,0.03646,0.02624,0.02565
758.64,0.02659,0.0364,0.02619,0.0255
759.08,0.02637,0.03635,0.02614,0.02536
759.52,0.02618,0.03629,0.02598,0.0252
759.96,0.02603,0.03629,0.02591,0.02507
760.4,0.02592,0.03629,0.02589,0.02502
760.84,0.02585,0.03628,0.02578,0.02505
761.28,0.02582,0.03626,0.02577,0.02505
761.72,0.0258,0.03624,0.02576,0.02506
762.16,0.02578,0.03622,0.02581,0.02508
762.6,0.02574,0.03627,0.02586,0.02506
763.03,0.02569,0.03627,0.02589,0.02506
763.47,0.02564,0.03622,0.02596,0.02504
763.91,0.02558,0.03625,0.02604,0.02501
764.35,0.02553,0.0363,0.02616,0.02503
764.79,0.02551,0.03631,0.02632,0.02508
765.23,0.02551,0.03628,0.02645,0.02512
765.67,0.02553,0.03622,0.02662,0.02521
766.11,0.02557,0.03621,0.02678,0.02539
766.54,0.02561,0.03623,0.02695,0.02554
766.98,0.02566,0.03628,0.02705,0.02565
767.42,0.02571,0.03632,0.0271,0.02573
767.86,0.02575,0.03642,0.02712,0.0258
768.3,0.02581,0.03653,0.02717,0.02586
768.74,0.02589,0.0367,0.02718,0.02594
769.17,0.02601,0.03678,0.02718,0.02589
769.61,0.02618,0.03684,0.02724,0.0259
770.05,0.02636,0.03681,0.02726,0.0259
770.49,0.02657,0.03679,0.02733,0.02593
770.93,0.02677,0.03673,0.02733,0.02593
771.37,0.02695,0.03666,0.02734,0.02592
771.8,0.02709,0.03659,0.02728,0.02585
772.24,0.02718,0.03659,0.02723,0.02578
772.68,0.02722,0.03662,0.02708,0.02565
773.12,0.02723,0.03666,0.02698,0.02549
773.56,0.02721,0.03673,0.02684,0.02531
774,0.02721,0.03672,0.02665,0.0251
774.43,0.0272,0.03675,0.02652,0.02491
774.87,0.02721,0.03677,0.02644,0.02479
775.31,0.02722,0.03672,0.02634,0.02466
775.75,0.02723,0.03666,0.02622,0.02458
776.19,0.02725,0.03659,0.02609,0.02441
776.62,0.02727,0.03647,0.02597,0.02424
777.06,0.02725,0.0364,0.02582,0.02409
777.5,0.0272,0.03629,0.02571,0.02398
777.94,0.02711,0.03618,0.02557,0.02385
778.37,0.027,0.03609,0.02535,0.02364
778.81,0.02684,0.03599,0.02518,0.0234
779.25,0.02663,0.03589,0.02503,0.02321
779.69,0.02638,0.03583,0.02489,0.02307
780.13,0.02609,0.03579,0.02469,0.0229
780.56,0.0258,0.03576,0.02451,0.02273
781,0.02551,0.03569,0.0244,0.02257
781.44,0.0252,0.03565,0.0243,0.02249
781.88,0.02491,0.0356,0.02422,0.02242
782.31,0.02465,0.03549,0.02418,0.02239
782.75,0.02439,0.03533,0.02412,0.02227
783.19,0.02415,0.03517,0.02406,0.02221
783.63,0.02392,0.03499,0.02402,0.02216
784.06,0.02368,0.03481,0.02396,0.02205
784.5,0.02346,0.03463,0.02388,0.02191
784.94,0.02324,0.03442,0.02376,0.02178
785.37,0.02303,0.03425,0.02364,0.02171
785.81,0.02284,0.03412,0.02352,0.02159
786.25,0.02267,0.03398,0.02343,0.02149
786.69,0.02252,0.03383,0.02337,0.02141
787.12,0.02238,0.03371,0.02331,0.02142
787.56,0.02225,0.03366,0.02321,0.02139
788,0.02215,0.03365,0.02317,0.02138
788.43,0.02206,0.03368,0.02311,0.02132
788.87,0.02199,0.03366,0.02312,0.02136
789.31,0.02195,0.03361,0.02312,0.02141
789.75,0.02195,0.03357,0.02311,0.02146
790.18,0.02201,0.03353,0.0231,0.02149
790.62,0.02213,0.03349,0.02312,0.02159
791.06,0.0223,0.03346,0.02311,0.02169
791.49,0.02233,0.03344,0.02308,0.02171
791.93,0.02238,0.03342,0.02306,0.02172
792.37,0.02243,0.03341,0.02303,0.02174
792.8,0.0225,0.0334,0.02301,0.02176
793.24,0.02258,0.0334,0.02298,0.02178
793.68,0.02268,0.0334,0.02296,0.0218
794.11,0.02278,0.03341,0.02294,0.02182
794.55,0.0229,0.03342,0.02293,0.02185
794.99,0.02303,0.03344,0.02291,0.02187
795.42,0.02317,0.03346,0.02289,0.0219
795.86,0.02332,0.03349,0.02288,0.02193
796.3,0.02349,0.03352,0.02287,0.02196
796.73,0.02367,0.03356,0.02286,0.022
797.17,0.02386,0.03361,0.02285,0.02203
797.61,0.02406,0.03366,0.02284,0.02207
798.04,0.02427,0.03371,0.02284,0.0221
798.48,0.0245,0.03378,0.02283,0.02214
798.91,0.02473,0.03384,0.02283,0.02218
799.35,0.02498,0.03391,0.02283,0.02222
799.79,0.02524,0.03399,0.02283,0.02227
