SpectraSuite Data File
++++++++++++++++++++++++++++++++++++
Date: Tue Mar 29 10:18:15 CEST 2016
User: IPCE
Dark Spectrum Present: Yes
Reference Spectrum Present: Yes
Number of Sampled Component Spectra: 1
Spectrometers: HR+C0708
Integration Time (usec): 1000 (HR+C0708)
Spectra Averaged: 10 (HR+C0708)
Boxcar Smoothing: 0 (HR+C0708)
Correct for Electrical Dark: No (HR+C0708)
Strobe/Lamp Enabled: No (HR+C0708)
Correct for Detector Non-linearity: No (HR+C0708)
Correct for Stray Light: No (HR+C0708)
Number of Pixels in Processed Spectrum: 2048
>>>>>Begin Processed Spectral Data<<<<<
188.76	687.70
189.23	700.80
189.70	696.30
190.17	696.70
190.64	693.40
191.12	699.30
191.59	693.20
192.06	688.90
192.53	698.80
193.01	690.80
193.48	694.60
193.95	697.20
194.42	698.70
194.90	698.70
195.37	696.30
195.84	697.00
196.31	697.60
196.78	695.10
197.26	692.50
197.73	693.80
198.20	694.40
198.67	702.60
199.14	697.80
199.62	693.70
200.09	702.10
200.56	723.10
201.03	733.10
201.50	732.40
201.97	724.90
202.45	731.90
202.92	725.60
203.39	730.10
203.86	731.40
204.33	725.00
204.80	730.80
205.28	729.50
205.75	726.90
206.22	728.60
206.69	727.20
207.16	722.20
207.63	725.10
208.11	726.20
208.58	728.20
209.05	733.60
209.52	731.60
209.99	732.10
210.46	728.90
210.93	730.60
211.41	731.40
211.88	735.80
212.35	734.90
212.82	736.60
213.29	747.20
213.76	741.80
214.23	750.10
214.70	750.80
215.18	748.80
215.65	760.70
216.12	759.70
216.59	764.30
217.06	764.70
217.53	765.80
218.00	772.90
218.47	772.60
218.94	781.10
219.41	783.60
219.89	795.30
220.36	797.80
220.83	814.80
221.30	815.10
221.77	823.10
222.24	846.20
222.71	846.40
223.18	861.50
223.65	876.40
224.12	896.50
224.59	917.30
225.06	950.20
225.54	970.60
226.01	1000.70
226.48	1030.70
226.95	1067.90
227.42	1103.60
227.89	1157.70
228.36	1190.60
228.83	1252.70
229.30	1329.90
229.77	1383.40
230.24	1458.90
230.71	1531.50
231.18	1615.50
231.65	1687.40
232.12	1783.80
232.59	1881.90
233.06	1970.30
233.53	2068.00
234.00	2163.60
234.47	2262.00
234.94	2395.90
235.41	2487.20
235.88	2628.40
236.35	2754.10
236.82	2889.70
237.29	3041.00
237.76	3195.70
238.23	3331.60
238.70	3467.70
239.17	3615.30
239.64	3792.60
240.11	3974.40
240.58	4098.00
241.05	4285.50
241.52	4449.70
241.99	4565.60
242.46	4773.20
242.93	4906.40
243.40	5001.70
243.87	5157.90
244.34	5201.60
244.81	5322.40
245.28	5501.00
245.75	5537.60
246.22	5643.20
246.69	5707.60
247.16	5748.90
247.63	5750.60
248.10	5782.60
248.57	5813.70
249.04	5866.90
249.51	5859.50
249.98	5893.70
250.45	5903.40
250.92	5843.40
251.39	5840.50
251.85	5797.80
252.32	5739.70
252.79	5706.40
253.26	5807.10
253.73	5865.60
254.20	6079.40
254.67	6307.10
255.14	6615.20
255.61	6982.80
256.08	7279.60
256.55	7605.70
257.02	7795.70
257.49	8016.00
257.95	8256.00
258.42	8407.30
258.89	8527.10
259.36	8586.40
259.83	8794.80
260.30	8828.50
260.77	8941.50
261.24	9033.50
261.71	9172.70
262.17	9265.90
262.64	9223.70
263.11	9450.00
263.58	9548.50
264.05	9576.60
264.52	9483.10
264.99	9491.50
265.46	9603.30
265.92	9581.00
266.39	9669.20
266.86	9658.40
267.33	9600.40
267.80	9634.70
268.27	9602.60
268.74	9478.80
269.20	9359.50
269.67	9320.90
270.14	9225.50
270.61	9056.60
271.08	8877.30
271.55	8652.30
272.01	8607.20
272.48	8523.00
272.95	8427.50
273.42	8319.20
273.89	8328.70
274.36	8351.40
274.82	8351.60
275.29	8354.40
275.76	8261.00
276.23	8206.60
276.70	8318.00
277.16	8229.40
277.63	8204.10
278.10	8140.00
278.57	8023.10
279.04	7883.90
279.50	7873.10
279.97	7922.80
280.44	7980.70
280.91	8037.30
281.38	8193.50
281.84	8345.80
282.31	8535.00
282.78	8613.70
283.25	8785.60
283.72	8947.40
284.18	8970.40
284.65	9015.70
285.12	9097.70
285.59	9031.60
286.05	9130.10
286.52	9182.70
286.99	9350.80
287.46	9223.50
287.92	9222.80
288.39	9143.50
288.86	9084.60
289.33	9111.30
289.79	9043.70
290.26	8967.90
290.73	8864.50
291.20	8793.80
291.66	8849.10
292.13	8793.70
292.60	8757.30
293.07	8707.40
293.53	8732.50
294.00	8754.50
294.47	8706.10
294.93	8801.60
295.40	8741.10
295.87	8679.30
296.34	8725.50
296.80	8700.50
297.27	8634.80
297.74	8617.00
298.20	8643.40
298.67	8494.00
299.14	8450.10
299.60	8472.50
300.07	8372.40
300.54	8351.00
301.01	8286.60
301.47	8152.30
301.94	8036.70
302.41	7972.20
302.87	7888.30
303.34	7854.90
303.81	7730.70
304.27	7652.70
304.74	7703.30
305.21	7607.80
305.67	7587.10
306.14	7701.60
306.61	7710.60
307.07	7700.20
307.54	7797.10
308.01	7895.40
308.47	7862.10
308.94	7823.80
309.40	7867.90
309.87	7802.00
310.34	7764.80
310.80	7857.80
311.27	7800.80
311.74	7867.50
312.20	7868.50
312.67	7922.10
313.13	7961.80
313.60	8045.10
314.07	8205.10
314.53	8285.90
315.00	8472.00
315.47	8533.70
315.93	8604.90
316.40	8639.10
316.86	8698.70
317.33	8642.40
317.80	8690.90
318.26	8659.30
318.73	8652.00
319.19	8599.80
319.66	8495.50
320.13	8469.50
320.59	8331.40
321.06	8370.50
321.52	8193.60
321.99	8102.80
322.45	7991.00
322.92	7863.50
323.39	7731.20
323.85	7586.30
324.32	7425.90
324.78	7263.50
325.25	7170.40
325.71	6960.60
326.18	6831.80
326.64	6764.70
327.11	6729.80
327.58	6703.30
328.04	6671.20
328.51	6718.40
328.97	6828.10
329.44	6941.40
329.90	7046.50
330.37	7160.50
330.83	7278.70
331.30	7328.80
331.76	7554.50
332.23	7567.60
332.69	7680.40
333.16	7730.20
333.62	7810.40
334.09	7830.10
334.56	7823.40
335.02	7700.50
335.49	7587.60
335.95	7333.60
336.42	7056.80
336.88	6761.00
337.35	6775.60
337.81	6777.50
338.28	6876.30
338.74	7018.40
339.20	7218.00
339.67	7475.10
340.13	7711.30
340.60	7898.50
341.06	7980.10
341.53	7881.30
341.99	7782.20
342.46	7572.80
342.92	7326.10
343.39	7102.10
343.85	6778.00
344.32	6898.20
344.78	7178.30
345.25	7288.00
345.71	7257.70
346.17	7248.90
346.64	7231.30
347.10	7207.80
347.57	6988.60
348.03	6738.20
348.50	6238.20
348.96	5814.70
349.43	5487.30
349.89	5188.50
350.35	4955.80
350.82	4692.40
351.28	4464.90
351.75	4290.00
352.21	4087.70
352.67	3975.20
353.14	3865.20
353.60	3752.50
354.07	3737.70
354.53	3781.10
355.00	3813.60
355.46	3976.30
355.92	4100.30
356.39	4321.00
356.85	4535.50
357.31	4735.40
357.78	5019.20
358.24	5244.60
358.71	5491.80
359.17	5706.70
359.63	5903.10
360.10	6060.30
360.56	6222.90
361.03	6366.30
361.49	6506.60
361.95	6509.20
362.42	6701.40
362.88	6713.40
363.34	6768.60
363.81	6783.80
364.27	6803.90
364.73	6792.90
365.20	6761.90
365.66	6769.60
366.12	6796.70
366.59	6613.80
367.05	6579.90
367.51	6651.50
367.98	6590.60
368.44	6440.80
368.90	6369.50
369.37	6301.40
369.83	6323.40
370.29	6221.80
370.76	6300.50
371.22	6249.00
371.68	6339.10
372.15	6405.30
372.61	6476.70
373.07	6598.40
373.54	6643.70
374.00	6764.70
374.46	6899.70
374.92	6894.50
375.39	7066.30
375.85	7139.90
376.31	7186.70
376.78	7214.60
377.24	7182.20
377.70	7243.70
378.16	7299.10
378.63	7417.20
379.09	7443.30
379.55	7532.60
380.01	7636.70
380.48	7447.00
380.94	7415.60
381.40	7511.50
381.87	7358.30
382.33	7340.20
382.79	7401.60
383.25	7359.20
383.72	7330.40
384.18	7261.00
384.64	7211.80
385.10	7153.00
385.56	7102.30
386.03	7043.80
386.49	6980.40
386.95	7015.20
387.41	7134.10
387.88	7143.50
388.34	7239.50
388.80	7297.90
389.26	7234.50
389.72	7187.00
390.19	7130.50
390.65	7052.80
391.11	7115.20
391.57	7214.20
392.04	7299.70
392.50	7609.50
392.96	7689.50
393.42	7777.10
393.88	7749.70
394.34	7449.10
394.81	7348.10
395.27	7265.80
395.73	7365.90
396.19	7394.00
396.65	7502.10
397.12	7479.60
397.58	7696.30
398.04	7848.20
398.50	8146.40
398.96	8197.50
399.42	8147.90
399.89	7796.30
400.35	7492.10
400.81	7436.30
401.27	7335.30
401.73	7281.90
402.19	7244.50
402.65	7205.80
403.12	7156.40
403.58	7168.60
404.04	7069.60
404.50	7176.60
404.96	7088.10
405.42	7120.10
405.88	7181.10
406.34	7157.60
406.81	6922.70
407.27	6762.70
407.73	6616.90
408.19	6714.10
408.65	6733.90
409.11	6947.80
409.57	6862.10
410.03	6848.50
410.49	6703.10
410.96	6606.00
411.42	6564.40
411.88	6635.60
412.34	6669.10
412.80	6952.80
413.26	6776.50
413.72	6934.00
414.18	6942.60
414.64	6898.00
415.10	6713.50
415.56	6774.90
416.02	6760.20
416.48	6813.10
416.95	6789.10
417.41	6844.40
417.87	6885.50
418.33	6832.90
418.79	6843.90
419.25	6897.80
419.71	6961.00
420.17	7164.00
420.63	7125.30
421.09	7566.80
421.55	7871.10
422.01	7798.00
422.47	7777.20
422.93	7494.30
423.39	7295.00
423.85	7277.50
424.31	7089.90
424.77	7187.50
425.23	7110.80
425.69	7038.40
426.15	6945.10
426.61	6925.30
427.07	6795.90
427.53	6822.50
427.99	7105.00
428.45	7007.00
428.91	7161.20
429.37	7349.30
429.83	7905.30
430.29	8255.00
430.75	8319.70
431.21	8206.40
431.67	7369.40
432.13	7009.30
432.59	6535.40
433.05	6863.30
433.51	6760.40
433.97	7034.10
434.43	7164.60
434.89	6985.00
435.35	6626.50
435.81	6522.30
436.27	6436.90
436.73	6164.90
437.19	6083.00
437.65	6015.00
438.11	5768.90
438.57	5645.10
439.03	5801.70
439.48	5440.00
439.94	5315.10
440.40	5231.20
440.86	5294.90
441.32	5277.90
441.78	5483.60
442.24	5472.50
442.70	5491.80
443.16	5563.50
443.62	5732.70
444.08	5710.40
444.54	5742.40
444.99	5804.30
445.45	5887.10
445.91	5835.40
446.37	6138.00
446.83	6101.40
447.29	6190.50
447.75	6172.20
448.21	6331.60
448.67	6286.20
449.12	6233.80
449.58	6392.10
450.04	6243.20
450.50	6335.20
450.96	6267.10
451.42	6098.80
451.88	5994.30
452.34	6041.10
452.79	5993.20
453.25	5978.70
453.71	6175.10
454.17	5898.50
454.63	5910.70
455.09	5859.90
455.55	6020.70
456.00	6051.30
456.46	6252.50
456.92	6113.10
457.38	6186.90
457.84	6340.00
458.30	6647.30
458.75	6793.10
459.21	6716.70
459.67	7031.50
460.13	7327.10
460.59	7788.60
461.04	8254.90
461.50	8177.10
461.96	8548.40
462.42	8917.30
462.88	9498.90
463.33	9957.70
463.79	10303.00
464.25	10546.80
464.71	10244.30
465.17	10805.00
465.62	10787.40
466.08	10737.40
466.54	10660.40
467.00	10630.40
467.46	10688.70
467.91	10313.70
468.37	9912.40
468.83	9765.80
469.29	9937.20
469.74	9705.80
470.20	9268.40
470.66	9220.00
471.12	9411.20
471.57	9243.80
472.03	9261.10
472.49	8985.50
472.95	9153.60
473.40	8940.40
473.86	8958.90
474.32	8884.10
474.78	8976.60
475.23	8904.20
475.69	8814.90
476.15	8900.50
476.60	8677.00
477.06	8633.10
477.52	8652.10
477.98	8508.80
478.43	8758.60
478.89	8712.70
479.35	8707.70
479.80	8646.90
480.26	8735.40
480.72	8782.30
481.18	8902.10
481.63	8999.20
482.09	9097.70
482.55	9194.30
483.00	9325.60
483.46	9477.10
483.92	9565.30
484.37	9704.70
484.83	9843.70
485.29	9937.40
485.74	10247.80
486.20	10401.70
486.66	10502.60
487.11	10416.90
487.57	10384.80
488.03	10419.10
488.48	10431.00
488.94	10452.20
489.40	10492.50
489.85	10448.70
490.31	10492.10
490.77	10493.40
491.22	10396.80
491.68	10384.30
492.13	10371.00
492.59	10322.50
493.05	10324.20
493.50	10391.00
493.96	10322.20
494.42	10329.60
494.87	10276.90
495.33	10306.60
495.78	10285.40
496.24	10201.70
496.70	10257.80
497.15	10208.80
497.61	10213.20
498.06	10167.30
498.52	10181.10
498.98	10166.00
499.43	10242.50
499.89	10219.80
500.34	10216.30
500.80	10223.60
501.25	10279.50
501.71	10332.10
502.17	10353.40
502.62	10376.70
503.08	10497.20
503.53	10566.30
503.99	10649.20
504.44	10689.10
504.90	10799.30
505.36	10848.00
505.81	10938.20
506.27	11054.90
506.72	11114.50
507.18	11193.50
507.63	11142.40
508.09	11237.50
508.54	11247.40
509.00	11149.60
509.45	11038.90
509.91	10872.20
510.36	10743.90
510.82	10581.00
511.27	10321.70
511.73	10178.20
512.19	10023.10
512.64	9847.40
513.10	9660.70
513.55	9552.00
514.01	9472.90
514.46	9351.00
514.92	9278.60
515.37	9259.80
515.83	9268.30
516.28	9183.50
516.73	9168.70
517.19	9193.10
517.64	9193.30
518.10	9274.60
518.55	9264.40
519.01	9371.00
519.46	9400.30
519.92	9453.80
520.37	9588.10
520.83	9605.30
521.28	9672.90
521.74	9743.20
522.19	9794.60
522.65	9899.80
523.10	9900.20
523.55	9968.00
524.01	10047.70
524.46	10099.90
524.92	10106.40
525.37	10104.10
525.83	10102.70
526.28	10109.50
526.73	10097.20
527.19	10077.70
527.64	10053.80
528.10	10000.90
528.55	10002.90
529.01	9935.10
529.46	9970.40
529.91	9920.80
530.37	9860.00
530.82	9862.00
531.28	9814.60
531.73	9821.20
532.18	9745.10
532.64	9745.70
533.09	9794.30
533.54	9819.40
534.00	9782.80
534.45	9798.60
534.91	9843.60
535.36	9799.20
535.81	9860.80
536.27	9842.70
536.72	9868.60
537.17	9850.10
537.63	9860.00
538.08	9884.60
538.54	9955.20
538.99	9983.40
539.44	9967.00
539.90	10006.80
540.35	10041.00
540.80	10045.70
541.26	10071.00
541.71	10153.70
542.16	10130.20
542.62	10229.10
543.07	10204.20
543.52	10275.20
543.98	10315.00
544.43	10371.60
544.88	10393.00
545.34	10440.50
545.79	10500.90
546.24	10596.30
546.69	10591.10
547.15	10561.30
547.60	10728.20
548.05	10733.50
548.51	10801.90
548.96	10828.60
549.41	10946.70
549.86	10932.70
550.32	11014.70
550.77	11056.80
551.22	11109.40
551.68	11183.00
552.13	11176.40
552.58	11275.80
553.03	11329.60
553.49	11314.20
553.94	11398.00
554.39	11371.60
554.84	11436.30
555.30	11503.80
555.75	11504.40
556.20	11561.20
556.65	11574.40
557.11	11581.50
557.56	11597.90
558.01	11625.30
558.46	11622.10
558.92	11683.90
559.37	11740.90
559.82	11752.50
560.27	11765.70
560.72	11743.70
561.18	11842.40
561.63	11864.60
562.08	11905.20
562.53	11915.00
562.99	11912.30
563.44	11908.30
563.89	11981.10
564.34	11963.20
564.79	11944.10
565.25	12093.40
565.70	12055.60
566.15	12110.00
566.60	12135.20
567.05	12187.80
567.50	12289.10
567.96	12252.40
568.41	12356.10
568.86	12357.60
569.31	12403.80
569.76	12486.20
570.21	12571.80
570.67	12640.20
571.12	12724.20
571.57	12784.80
572.02	12828.50
572.47	12894.90
572.92	12900.20
573.37	12965.40
573.83	13105.10
574.28	13157.70
574.73	13272.50
575.18	13326.20
575.63	13303.20
576.08	13297.40
576.53	13391.30
576.98	13437.50
577.44	13565.90
577.89	13662.50
578.34	13680.30
578.79	13681.90
579.24	13644.70
579.69	13637.70
580.14	13674.30
580.59	13760.10
581.04	13833.70
581.49	13882.50
581.95	13922.80
582.40	14035.70
582.85	13984.00
583.30	13920.00
583.75	13902.50
584.20	13916.50
584.65	13970.00
585.10	13961.40
585.55	14017.80
586.00	14049.40
586.45	13943.90
586.90	13956.30
587.35	13978.70
587.80	14006.50
588.25	13950.40
588.71	13885.40
589.16	13880.20
589.61	13896.90
590.06	13848.30
590.51	13850.10
590.96	13841.20
591.41	13724.10
591.86	13736.20
592.31	13695.10
592.76	13688.40
593.21	13666.30
593.66	13736.20
594.11	13636.40
594.56	13630.10
595.01	13604.20
595.46	13611.00
595.91	13560.20
596.36	13585.40
596.81	13541.40
597.26	13490.30
597.71	13552.60
598.16	13561.00
598.61	13513.30
599.06	13569.70
599.51	13542.90
599.96	13567.40
600.41	13527.90
600.86	13548.40
601.31	13580.30
601.76	13470.70
602.21	13499.40
602.65	13567.60
603.10	13485.70
603.55	13556.40
604.00	13616.70
604.45	13530.10
604.90	13536.40
605.35	13547.60
605.80	13558.20
606.25	13627.10
606.70	13653.40
607.15	13638.10
607.60	13595.10
608.05	13671.60
608.50	13660.00
608.95	13666.30
609.39	13683.70
609.84	13672.10
610.29	13712.30
610.74	13759.80
611.19	13719.70
611.64	13716.70
612.09	13708.50
612.54	13729.20
612.99	13793.20
613.44	13739.50
613.88	13804.40
614.33	13792.10
614.78	13846.70
615.23	13826.80
615.68	13844.10
616.13	13900.90
616.58	13845.20
617.03	13838.60
617.47	13847.80
617.92	13873.70
618.37	13947.10
618.82	13895.70
619.27	13930.40
619.72	13909.70
620.17	13884.70
620.61	13894.40
621.06	13981.10
621.51	13925.30
621.96	13964.90
622.41	13992.90
622.86	13968.10
623.30	14059.80
623.75	13962.90
624.20	14052.80
624.65	14039.80
625.10	14026.90
625.54	14056.80
625.99	14018.20
626.44	13977.00
626.89	14031.20
627.34	14000.50
627.78	14005.80
628.23	13964.80
628.68	13898.80
629.13	13994.00
629.58	13981.80
630.02	13951.80
630.47	14003.30
630.92	13963.30
631.37	13952.10
631.81	13948.20
632.26	13895.20
632.71	13899.40
633.16	13905.50
633.61	13935.10
634.05	13928.70
634.50	13930.60
634.95	13832.10
635.40	13838.10
635.84	13900.80
636.29	13840.80
636.74	13843.60
637.18	13915.20
637.63	13855.60
638.08	13830.00
638.53	13848.50
638.97	13835.10
639.42	13772.30
639.87	13807.40
640.32	13741.20
640.76	13770.30
641.21	13693.50
641.66	13757.80
642.10	13727.00
642.55	13721.80
643.00	13786.20
643.44	13672.10
643.89	13707.80
644.34	13646.50
644.79	13578.90
645.23	13641.90
645.68	13602.80
646.13	13588.30
646.57	13574.30
647.02	13519.10
647.47	13533.60
647.91	13481.40
648.36	13524.40
648.81	13490.50
649.25	13458.00
649.70	13476.80
650.15	13411.30
650.59	13397.40
651.04	13286.40
651.48	13351.80
651.93	13289.80
652.38	13340.80
652.82	13373.60
653.27	13240.50
653.72	13257.60
654.16	13220.20
654.61	13232.40
655.06	13147.60
655.50	13245.20
655.95	13622.60
656.39	14901.60
656.84	15178.70
657.29	13952.90
657.73	13225.80
658.18	13005.80
658.62	12972.50
659.07	12953.30
659.52	12948.70
659.96	12866.00
660.41	12861.40
660.85	12820.80
661.30	12830.30
661.74	12734.00
662.19	12770.80
662.64	12705.70
663.08	12691.50
663.53	12617.50
663.97	12664.70
664.42	12668.60
664.86	12585.00
665.31	12650.40
665.75	12645.80
666.20	12602.40
666.65	12598.00
667.09	12595.20
667.54	12572.40
667.98	12622.00
668.43	12584.00
668.87	12610.30
669.32	12501.10
669.76	12522.00
670.21	12377.80
670.65	12412.40
671.10	12376.50
671.54	12358.40
671.99	12243.40
672.43	12266.80
672.88	12310.10
673.32	12161.70
673.77	12154.50
674.21	12127.30
674.66	12077.70
675.10	12097.40
675.55	11988.00
675.99	12057.60
676.44	12003.60
676.88	11924.80
677.33	11945.20
677.77	11926.00
678.22	11845.80
678.66	11881.40
679.11	11861.70
679.55	11900.30
679.99	11766.40
680.44	11808.70
680.88	11738.20
681.33	11738.80
681.77	11695.50
682.22	11740.10
682.66	11642.20
683.11	11599.00
683.55	11607.20
683.99	11631.00
684.44	11529.00
684.88	11549.90
685.33	11559.80
685.77	11466.70
686.21	11459.40
686.66	11485.40
687.10	11464.80
687.55	11379.10
687.99	11320.70
688.44	11339.00
688.88	11325.40
689.32	11219.90
689.77	11273.80
690.21	11229.00
690.65	11237.90
691.10	11159.00
691.54	11173.30
691.99	11095.60
692.43	11030.70
692.87	11028.20
693.32	10953.00
693.76	10930.60
694.20	10995.10
694.65	10906.00
695.09	10929.40
695.53	10848.90
695.98	10884.80
696.42	10832.80
696.86	10734.40
697.31	10729.70
697.75	10693.50
698.19	10608.00
698.64	10586.70
699.08	10568.60
699.52	10494.30
699.97	10421.90
700.41	10431.30
700.85	10365.10
701.30	10361.50
701.74	10284.70
702.18	10320.50
702.63	10205.70
703.07	10174.70
703.51	10118.00
703.96	10068.30
704.40	9949.30
704.84	9983.10
705.28	9921.40
705.73	9861.30
706.17	9798.40
706.61	9759.90
707.06	9729.30
707.50	9712.10
707.94	9660.10
708.38	9631.20
708.83	9507.60
709.27	9493.10
709.71	9483.30
710.15	9389.30
710.60	9367.40
711.04	9310.10
711.48	9277.00
711.92	9207.00
712.37	9171.10
712.81	9123.60
713.25	9075.20
713.69	9013.90
714.13	8961.10
714.58	8947.60
715.02	8911.40
715.46	8840.20
715.90	8772.30
716.35	8736.20
716.79	8717.60
717.23	8650.50
717.67	8608.70
718.11	8530.90
718.56	8492.20
719.00	8493.70
719.44	8374.60
719.88	8379.50
720.32	8297.30
720.76	8258.80
721.21	8202.90
721.65	8146.50
722.09	8110.20
722.53	8068.00
722.97	8029.50
723.41	7971.30
723.86	7937.60
724.30	7902.30
724.74	7834.80
725.18	7794.90
725.62	7805.70
726.06	7761.80
726.50	7710.10
726.95	7703.40
727.39	7714.10
727.83	7720.60
728.27	7650.20
728.71	7651.20
729.15	7635.00
729.59	7588.20
730.03	7572.70
730.48	7538.90
730.92	7514.20
731.36	7520.50
731.80	7516.10
732.24	7506.30
732.68	7444.40
733.12	7429.00
733.56	7411.00
734.00	7454.70
734.44	7407.50
734.89	7410.10
735.33	7404.70
735.77	7382.20
736.21	7406.20
736.65	7372.80
737.09	7304.70
737.53	7303.70
737.97	7321.90
738.41	7292.60
738.85	7301.70
739.29	7328.90
739.73	7223.10
740.17	7253.70
740.61	7243.80
741.05	7245.40
741.49	7227.50
741.93	7190.90
742.37	7244.70
742.81	7186.20
743.26	7225.40
743.70	7196.50
744.14	7177.00
744.58	7197.60
745.02	7166.40
745.46	7154.40
745.90	7155.80
746.34	7147.60
746.78	7174.40
747.22	7114.30
747.66	7134.50
748.10	7120.40
748.54	7078.80
748.98	7090.00
749.42	7083.60
749.86	7034.50
750.29	7013.90
750.73	6994.80
751.17	6948.20
751.61	6939.00
752.05	6918.90
752.49	6872.30
752.93	6881.30
753.37	6850.00
753.81	6842.50
754.25	6809.40
754.69	6778.90
755.13	6792.70
755.57	6768.50
756.01	6701.60
756.45	6660.10
756.89	6683.80
757.33	6673.50
757.77	6657.40
758.21	6630.10
758.64	6615.30
759.08	6551.90
759.52	6544.00
759.96	6544.00
760.40	6479.20
760.84	6493.60
761.28	6472.80
761.72	6426.80
762.16	6403.70
762.60	6364.70
763.03	6362.30
763.47	6355.00
763.91	6314.20
764.35	6268.70
764.79	6252.90
765.23	6258.50
765.67	6234.10
766.11	6156.00
766.54	6151.30
766.98	6131.30
767.42	6096.30
767.86	6050.70
768.30	6009.90
768.74	6018.00
769.17	5973.90
769.61	5927.60
770.05	5940.10
770.49	5835.80
770.93	5844.60
771.37	5841.00
771.80	5781.80
772.24	5775.60
772.68	5727.00
773.12	5687.30
773.56	5666.60
774.00	5658.50
774.43	5628.60
774.87	5581.80
775.31	5548.40
775.75	5546.70
776.19	5491.90
776.62	5469.50
777.06	5454.10
777.50	5400.20
777.94	5372.20
778.37	5321.50
778.81	5319.50
779.25	5246.30
779.69	5256.10
780.13	5194.90
780.56	5146.00
781.00	5144.30
781.44	5115.60
781.88	5102.60
782.31	5079.50
782.75	5029.50
783.19	4986.00
783.63	4953.20
784.06	4915.50
784.50	4911.10
784.94	4862.60
785.37	4838.20
785.81	4824.50
786.25	4789.70
786.69	4802.50
787.12	4731.30
787.56	4690.80
788.00	4703.00
788.43	4656.90
788.87	4626.40
789.31	4599.20
789.75	4531.60
790.18	4542.50
790.62	4504.30
791.06	4491.20
791.49	4434.00
791.93	4440.60
792.37	4427.90
792.80	4394.80
793.24	4404.20
793.68	4342.30
794.11	4327.00
794.55	4306.90
794.99	4266.80
795.42	4221.40
795.86	4237.00
796.30	4226.70
796.73	4209.10
797.17	4149.10
797.61	4165.80
798.04	4139.00
798.48	4090.10
798.91	4089.80
799.35	4037.30
799.79	4035.50
800.22	4020.10
800.66	4004.20
801.10	3976.00
801.53	3940.60
801.97	3920.30
802.40	3919.30
802.84	3888.50
803.28	3856.00
803.71	3827.50
804.15	3855.20
804.58	3817.70
805.02	3812.00
805.46	3791.50
805.89	3807.90
806.33	3757.20
806.76	3732.70
807.20	3734.40
807.63	3688.20
808.07	3663.80
808.51	3668.10
808.94	3647.90
809.38	3603.40
809.81	3597.50
810.25	3571.60
810.68	3585.50
811.12	3554.20
811.55	3563.10
811.99	3515.60
812.42	3515.90
812.86	3500.40
813.29	3483.10
813.73	3475.10
814.17	3431.30
814.60	3441.70
815.04	3410.70
815.47	3388.60
815.91	3381.50
816.34	3359.40
816.78	3358.20
817.21	3370.70
817.65	3355.60
818.08	3312.00
818.52	3297.10
818.95	3294.00
819.39	3272.50
819.82	3264.60
820.25	3260.60
820.69	3229.70
821.12	3219.60
821.56	3210.90
821.99	3160.10
822.43	3140.00
822.86	3148.20
823.30	3146.30
823.73	3143.70
824.17	3132.10
824.60	3083.50
825.04	3088.70
825.47	3059.60
825.90	3074.10
826.34	3029.60
826.77	3045.50
827.21	3027.40
827.64	3002.60
828.08	2989.70
828.51	2995.40
828.94	2975.90
829.38	2947.10
829.81	2956.00
830.25	2943.10
830.68	2936.10
831.11	2920.40
831.55	2912.90
831.98	2893.80
832.42	2880.80
832.85	2881.50
833.28	2870.70
833.72	2853.00
834.15	2837.00
834.58	2854.10
835.02	2823.90
835.45	2800.70
835.88	2801.80
836.32	2791.60
836.75	2786.60
837.19	2771.80
837.62	2756.90
838.05	2751.00
838.49	2738.10
838.92	2733.40
839.35	2721.20
839.79	2714.40
840.22	2710.60
840.65	2699.00
841.09	2682.70
841.52	2673.40
841.95	2662.70
842.39	2636.70
842.82	2631.80
843.25	2622.50
843.68	2617.40
844.12	2585.40
844.55	2594.80
844.98	2579.50
845.42	2574.50
845.85	2567.20
846.28	2558.30
846.71	2543.20
847.15	2540.00
847.58	2534.40
848.01	2522.60
848.45	2516.90
848.88	2515.30
849.31	2496.20
849.74	2483.10
850.18	2474.70
850.61	2471.60
851.04	2443.70
851.47	2439.80
851.91	2449.90
852.34	2429.50
852.77	2409.90
853.20	2408.40
853.64	2413.20
854.07	2397.60
854.50	2390.00
854.93	2398.90
855.36	2365.30
855.80	2363.80
856.23	2370.70
856.66	2336.90
857.09	2342.80
857.52	2337.00
857.96	2324.60
858.39	2323.10
858.82	2310.00
859.25	2303.40
859.68	2304.90
860.12	2283.90
860.55	2285.00
860.98	2289.40
861.41	2272.70
861.84	2257.40
862.27	2270.30
862.71	2248.50
863.14	2245.20
863.57	2249.00
864.00	2213.30
864.43	2223.70
864.86	2217.00
865.30	2207.50
865.73	2199.00
866.16	2195.90
866.59	2178.10
867.02	2180.80
867.45	2189.20
867.88	2174.30
868.31	2168.90
868.75	2159.30
869.18	2147.50
869.61	2147.10
870.04	2145.80
870.47	2130.00
870.90	2114.40
871.33	2122.80
871.76	2122.20
872.19	2121.00
872.62	2112.00
873.06	2090.10
873.49	2083.30
873.92	2092.40
874.35	2092.00
874.78	2073.30
875.21	2086.40
875.64	2069.70
876.07	2059.50
876.50	2069.00
876.93	2055.20
877.36	2062.50
877.79	2042.30
878.22	2058.40
878.65	2069.30
879.08	2068.50
879.51	2066.40
879.94	2068.40
880.37	2091.10
880.80	2102.10
881.23	2094.80
881.67	2109.30
882.10	2108.70
882.53	2107.40
882.96	2133.10
883.39	2134.00
883.82	2131.80
884.25	2146.10
884.68	2176.60
885.11	2169.80
885.54	2193.80
885.97	2206.80
886.39	2221.00
886.82	2252.80
887.25	2246.20
887.68	2243.60
888.11	2262.20
888.54	2287.80
888.97	2317.20
889.40	2320.10
889.83	2320.50
890.26	2344.90
890.69	2347.00
891.12	2373.90
891.55	2394.50
891.98	2415.40
892.41	2432.70
892.84	2440.60
893.27	2471.40
893.70	2479.80
894.13	2504.30
894.56	2525.60
894.98	2537.90
895.41	2556.40
895.84	2577.50
896.27	2584.40
896.70	2612.10
897.13	2622.30
897.56	2653.60
897.99	2672.80
898.42	2677.80
898.85	2718.00
899.27	2731.40
899.70	2757.20
900.13	2753.00
900.56	2775.90
900.99	2797.00
901.42	2831.10
901.85	2840.00
902.28	2851.10
902.70	2870.00
903.13	2895.30
903.56	2928.90
903.99	2951.10
904.42	2970.10
904.85	2966.90
905.27	2998.30
905.70	3013.10
906.13	3033.80
906.56	3035.60
906.99	3062.00
907.42	3086.70
907.84	3100.70
908.27	3109.10
908.70	3135.80
909.13	3128.40
909.56	3150.40
909.98	3155.70
910.41	3167.60
910.84	3197.50
911.27	3237.50
911.70	3220.70
912.12	3236.50
912.55	3252.70
912.98	3259.40
913.41	3301.60
913.84	3295.80
914.26	3291.50
914.69	3323.30
915.12	3339.10
915.55	3316.50
915.97	3329.50
916.40	3349.00
916.83	3343.40
917.26	3350.60
917.68	3371.80
918.11	3407.10
918.54	3402.40
918.97	3421.10
919.39	3420.40
919.82	3412.90
920.25	3415.30
920.67	3412.20
921.10	3437.10
921.53	3442.20
921.96	3450.80
922.38	3433.50
922.81	3443.20
923.24	3460.60
923.66	3428.10
924.09	3428.00
924.52	3444.70
924.94	3424.60
925.37	3439.30
925.80	3402.80
926.22	3398.40
926.65	3380.10
927.08	3387.10
927.50	3391.00
927.93	3388.10
928.36	3370.00
928.78	3363.70
929.21	3375.60
929.64	3374.00
930.06	3387.70
930.49	3342.60
930.92	3330.60
931.34	3308.70
931.77	3300.90
932.20	3283.00
932.62	3225.70
933.05	3194.00
933.47	3162.80
933.90	3124.30
934.33	3036.40
934.75	2991.10
935.18	2945.40
935.61	2873.70
936.03	2775.10
936.46	2713.50
936.88	2594.20
937.31	2513.70
937.73	2409.00
938.16	2313.00
938.59	2227.80
939.01	2120.50
939.44	2077.50
939.86	1981.80
940.29	1924.20
940.71	1868.80
941.14	1823.10
941.57	1773.70
941.99	1748.90
942.42	1731.50
942.84	1688.60
943.27	1666.40
943.69	1658.30
944.12	1653.70
944.54	1649.60
944.97	1650.10
945.39	1646.00
945.82	1653.50
946.24	1671.20
946.67	1679.00
947.09	1693.70
947.52	1717.60
947.94	1744.80
948.37	1746.30
948.79	1772.40
949.22	1815.40
949.64	1831.40
950.07	1856.70
950.49	1884.30
950.92	1912.30
951.34	1935.50
951.77	1944.70
952.19	1965.90
952.62	2015.10
953.04	2025.60
953.47	2057.80
953.89	2078.30
954.32	2099.70
954.74	2108.80
955.17	2126.60
955.59	2155.80
956.01	2187.60
956.44	2180.60
956.86	2196.60
957.29	2223.50
957.71	2222.20
958.14	2248.20
958.56	2247.00
958.98	2250.00
959.41	2260.60
959.83	2278.10
960.26	2281.00
960.68	2293.80
961.10	2273.20
961.53	2300.50
961.95	2309.90
962.38	2305.80
962.80	2314.30
963.22	2306.60
963.65	2324.50
964.07	2326.10
964.50	2326.90
964.92	2308.60
965.34	2319.60
965.77	2332.90
966.19	2349.00
966.61	2330.10
967.04	2312.60
967.46	2305.20
967.88	2300.70
968.31	2299.40
968.73	2297.80
969.15	2303.70
969.58	2310.00
970.00	2296.00
970.42	2288.30
970.85	2298.50
971.27	2273.10
971.69	2263.70
972.12	2277.20
972.54	2266.20
972.96	2240.10
973.39	2243.60
973.81	2244.10
974.23	2218.60
974.65	2205.00
975.08	2181.20
975.50	2188.80
975.92	2190.80
976.35	2186.70
976.77	2182.40
977.19	2189.20
977.61	2168.60
978.04	2157.00
978.46	2146.90
978.88	2154.60
979.30	2149.70
979.73	2126.70
980.15	2140.20
980.57	2132.60
980.99	2108.60
981.42	2133.80
981.84	2122.30
982.26	2106.20
982.68	2117.60
983.11	2108.60
983.53	2100.20
983.95	2100.50
984.37	2111.30
984.79	2113.60
985.22	2105.80
985.64	2110.10
986.06	2119.30
986.48	2118.90
986.90	2112.10
987.33	2108.50
987.75	2108.00
988.17	2116.20
988.59	2106.40
989.01	2116.00
989.43	2114.60
989.86	2114.10
990.28	2111.40
990.70	2094.20
991.12	2100.40
991.54	2099.50
991.96	2090.60
992.39	2083.00
992.81	2081.10
993.23	2063.10
993.65	2053.20
994.07	2042.20
994.49	2033.80
994.91	2038.30
995.34	2026.20
995.76	2009.20
996.18	1988.70
996.60	1978.80
997.02	1951.50
997.44	1952.10
997.86	1918.90
998.28	1914.20
998.70	1897.20
999.12	1879.70
999.55	1881.30
999.97	1860.10
1000.39	1835.80
1000.81	1827.90
1001.23	1831.10
1001.65	1808.90
1002.07	1787.40
1002.49	1783.90
1002.91	1750.40
1003.33	1749.50
1003.75	1729.00
1004.17	1707.20
1004.59	1697.50
1005.01	1687.50
1005.43	1678.90
1005.85	1666.60
1006.28	1659.70
1006.70	1634.60
1007.12	1632.20
1007.54	1615.00
1007.96	1601.10
1008.38	1593.40
1008.80	1581.00
1009.22	1575.00
1009.64	1555.80
1010.06	1539.70
1010.48	1528.80
1010.90	1513.60
1011.32	1512.00
1011.74	1503.50
1012.16	1484.50
1012.58	1477.60
1013.00	1465.50
1013.42	1456.70
1013.84	1448.30
1014.26	1434.90
1014.67	1426.00
1015.09	1417.10
1015.51	1409.70
1015.93	1411.90
1016.35	1385.20
1016.77	1382.80
1017.19	1379.60
1017.61	1359.80
1018.03	1356.40
1018.45	1341.30
1018.87	1340.90
1019.29	1327.40
1019.71	1322.00
1020.13	1317.70
1020.55	1306.60
1020.97	1292.90
1021.38	1290.10
1021.80	1286.70
1022.22	1268.70
1022.64	1256.20
1023.06	1260.90
1023.48	1247.10
1023.90	1245.70
1024.32	1234.90
1024.74	1229.30
1025.15	1214.30
1025.57	1219.30
1025.99	1203.70
1026.41	1187.40
1026.83	1187.30
1027.25	1189.70
1027.67	1175.80
1028.08	1164.90
1028.50	1171.60
1028.92	1155.20
1029.34	1155.10
1029.76	1144.30
1030.18	1136.30
1030.60	1131.90
1031.01	1133.00
1031.43	1136.10
1031.85	1126.10
1032.27	1122.70
1032.69	1101.70
1033.10	1099.20
1033.52	1093.30
1033.94	1094.50
1034.36	1088.70
1034.78	1075.20
1035.19	1075.10
1035.61	1065.90
1036.03	1063.90
1036.45	1059.10
1036.87	1048.50
1037.28	1038.20
1037.70	1043.10
1038.12	1033.10
1038.54	1024.70
1038.95	1023.20
1039.37	1029.50
1039.79	1014.70
1040.21	1009.00
1040.62	1003.00
1041.04	1010.40
1041.46	997.20
1041.88	993.40
1042.29	991.30
1042.71	981.30
1043.13	968.50
1043.55	976.20
1043.96	965.90
1044.38	965.40
1044.80	964.30
1045.21	953.60
1045.63	960.60
1046.05	951.40
1046.47	940.90
1046.88	942.80
1047.30	929.80
1047.72	923.20
1048.13	917.20
1048.55	920.40
1048.97	911.70
1049.38	905.90
1049.80	900.40
1050.22	896.10
1050.63	888.30
1051.05	882.60
1051.47	878.00
1051.88	874.00
1052.30	867.20
1052.72	861.20
1053.13	858.30
1053.55	856.40
1053.97	850.30
1054.38	835.70
1054.80	836.00
1055.21	830.60
1055.63	826.60
1056.05	823.80
1056.46	819.50
1056.88	822.10
1057.29	814.60
1057.71	806.50
1058.13	811.90
1058.54	792.60
1058.96	791.40
1059.37	792.70
1059.79	784.80
1060.21	777.20
1060.62	778.50
1061.04	778.40
1061.45	773.60
1061.87	778.50
1062.28	769.30
1062.70	768.90
1063.12	762.70
1063.53	756.30
1063.95	762.90
1064.36	757.00
1064.78	747.00
1065.19	744.90
1065.61	746.30
1066.02	748.10
1066.44	744.90
1066.85	739.10
1067.27	746.10
1067.68	731.80
1068.10	739.20
1068.51	737.40
1068.93	732.30
1069.35	736.10
1069.76	723.50
1070.17	717.50
1070.59	723.60
1071.00	727.50
1071.42	722.20
1071.83	724.70
1072.25	722.40
1072.66	723.60
1073.08	722.00
1073.49	721.70
1073.91	716.30
1074.32	718.50
1074.74	710.10
1075.15	718.00
1075.57	709.00
1075.98	706.40
1076.40	715.10
1076.81	710.10
1077.22	703.40
1077.64	710.50
1078.05	704.90
1078.47	708.10
1078.88	708.00
1079.30	708.60
1079.71	707.50
1080.12	707.80
1080.54	700.00
1080.95	707.60
1081.37	701.10
1081.78	701.20
1082.19	701.90
1082.61	699.50
1083.02	700.80
1083.44	696.50
1083.85	696.10
1084.26	698.60
1084.68	696.10
1085.09	692.50
1085.50	704.40
1085.92	693.50
1086.33	692.60
1086.74	698.90
1087.16	689.00
1087.57	696.50
1087.98	689.30
1088.40	692.00
1088.81	691.80
1089.22	690.50
1089.64	695.30
1090.05	698.60
1090.46	699.90
1090.88	693.90
1091.29	695.30
1091.70	690.00
1092.12	690.70
1092.53	696.90
1092.94	696.20
1093.36	694.50
1093.77	696.50
1094.18	686.20
1094.59	698.70
1095.01	698.80
1095.42	700.10
1095.83	695.50
1096.25	696.60
1096.66	693.80
1097.07	690.00
1097.48	690.80
1097.90	695.60
1098.31	693.30
1098.72	689.20
1099.13	686.90
>>>>>End Processed Spectral Data<<<<<
